# Tempo(s) E[W]
10.0 1.102291
20.0 2.263385
30.0 2.085753
40.0 2.468799
50.0 2.610098
60.0 2.451528
70.0 2.336525
80.0 2.309262
90.0 2.275738
100.0 2.140014
110.0 1.990146
120.0 1.906696
130.0 1.923759
140.0 1.890087
150.0 1.846385
160.0 1.896450
170.0 1.802446
180.0 1.781003
190.0 1.787593
200.0 1.851899
210.0 1.806149
220.0 1.864224
230.0 1.833795
240.0 1.819440
250.0 1.764836
260.0 1.810299
270.0 1.785200
280.0 1.759786
290.0 1.760229
300.0 1.760229
310.0 1.738617
320.0 1.722110
330.0 1.696560
340.0 1.699847
350.0 1.660075
360.0 1.645224
370.0 1.688319
380.0 1.685394
390.0 1.759605
400.0 1.799078
410.0 2.007629
420.0 2.302046
430.0 2.500705
440.0 2.557648
450.0 2.536399
460.0 2.501602
470.0 2.496426
480.0 2.483595
490.0 2.460667
500.0 2.445929
510.0 2.416015
520.0 2.397610
530.0 2.386226
540.0 2.349495
550.0 2.309494
560.0 2.323967
570.0 2.302284
580.0 2.294397
590.0 2.279102
600.0 2.305373
610.0 2.289668
620.0 2.288674
630.0 2.275228
640.0 2.255451
650.0 2.237204
660.0 2.222438
670.0 2.202874
680.0 2.197711
690.0 2.182845
700.0 2.151094
710.0 2.142987
720.0 2.127226
730.0 2.102319
740.0 2.089264
750.0 2.090677
760.0 2.114397
770.0 2.118296
780.0 2.112830
790.0 2.083281
800.0 2.082678
810.0 2.077028
820.0 2.069607
830.0 2.049811
840.0 2.043554
850.0 2.044751
860.0 2.037839
870.0 2.036127
880.0 2.081300
890.0 2.165892
900.0 2.177604
910.0 2.177321
920.0 2.161338
930.0 2.141141
940.0 2.119899
950.0 2.119339
960.0 2.115155
970.0 2.109646
980.0 2.140083
990.0 2.172928
1000.0 2.169592
1010.0 2.154044
1020.0 2.130634
1030.0 2.190421
1040.0 2.178020
1050.0 2.186247
1060.0 2.193242
1070.0 2.197136
1080.0 2.188677
1090.0 2.182380
1100.0 2.172649
1110.0 2.173892
1120.0 2.169545
1130.0 2.160052
1140.0 2.153827
1150.0 2.145234
1160.0 2.139926
1170.0 2.136426
1180.0 2.124703
1190.0 2.140360
1200.0 2.159513
1210.0 2.148058
1220.0 2.135916
1230.0 2.135321
1240.0 2.132068
1250.0 2.121746
1260.0 2.130944
1270.0 2.137071
1280.0 2.131956
1290.0 2.123560
1300.0 2.120265
1310.0 2.120497
1320.0 2.112883
1330.0 2.105515
1340.0 2.104279
1350.0 2.148658
1360.0 2.144269
1370.0 2.132321
1380.0 2.120284
1390.0 2.110826
1400.0 2.107974
1410.0 2.101371
1420.0 2.100060
1430.0 2.085270
1440.0 2.062023
1450.0 2.055103
1460.0 2.052211
1470.0 2.049683
1480.0 2.039443
1490.0 2.035887
1500.0 2.033390
1510.0 2.027320
1520.0 2.029045
1530.0 2.031583
1540.0 2.027910
1550.0 2.030062
1560.0 2.028766
1570.0 2.035727
1580.0 2.044081
1590.0 2.041792
1600.0 2.039450
1610.0 2.039614
1620.0 2.029044
1630.0 2.025096
1640.0 2.024474
1650.0 2.019209
1660.0 2.011756
1670.0 2.010280
1680.0 2.012821
1690.0 2.002701
1700.0 1.996838
1710.0 1.992310
1720.0 1.986413
1730.0 1.984948
1740.0 1.983214
1750.0 1.978380
1760.0 1.986767
1770.0 1.987111
1780.0 1.984836
1790.0 1.982714
1800.0 1.976231
1810.0 1.971665
1820.0 1.963964
1830.0 1.962738
1840.0 1.959270
1850.0 1.944125
1860.0 1.946039
1870.0 1.951204
1880.0 1.947916
1890.0 1.959158
1900.0 1.957650
1910.0 1.951619
1920.0 1.948962
1930.0 1.942104
1940.0 1.937798
1950.0 1.937406
1960.0 1.928936
1970.0 1.927565
1980.0 1.930593
1990.0 1.926783
2000.0 1.927885
2010.0 1.919471
2020.0 1.913648
2030.0 1.908640
2040.0 1.912063
2050.0 1.912931
2060.0 1.914959
2070.0 1.937430
2080.0 2.003358
2090.0 2.038379
2100.0 2.036545
2110.0 2.036401
2120.0 2.033135
2130.0 2.028986
2140.0 2.022515
2150.0 2.026585
2160.0 2.017453
2170.0 2.044962
2180.0 2.041117
2190.0 2.036326
2200.0 2.033673
2210.0 2.032877
2220.0 2.032257
2230.0 2.029180
2240.0 2.024235
2250.0 2.024286
2260.0 2.020923
2270.0 2.023632
2280.0 2.018289
2290.0 2.015799
2300.0 2.013961
2310.0 2.028973
2320.0 2.024784
2330.0 2.021128
2340.0 2.020737
2350.0 2.012583
2360.0 2.005143
2370.0 2.003872
2380.0 2.001444
2390.0 1.991126
2400.0 1.997093
2410.0 1.998295
2420.0 1.993211
2430.0 1.987732
2440.0 1.991081
2450.0 1.991643
2460.0 2.017847
2470.0 2.022154
2480.0 2.021877
2490.0 2.026817
2500.0 2.021755
2510.0 2.015417
2520.0 2.012597
2530.0 2.007296
2540.0 2.004098
2550.0 1.997100
2560.0 1.994768
2570.0 1.995884
2580.0 2.007352
2590.0 2.003402
2600.0 2.002865
2610.0 1.999950
2620.0 2.004023
2630.0 2.001502
2640.0 1.999280
2650.0 1.996721
2660.0 1.997765
2670.0 1.997808
2680.0 2.000646
2690.0 1.999212
2700.0 1.992891
2710.0 1.996327
2720.0 1.992373
2730.0 1.990897
2740.0 2.002606
2750.0 1.999777
2760.0 1.997333
2770.0 1.994370
2780.0 1.999185
2790.0 1.998873
2800.0 1.995409
2810.0 1.991480
2820.0 1.987160
2830.0 1.999411
2840.0 1.996634
2850.0 1.995831
2860.0 1.991112
2870.0 1.998498
2880.0 1.996299
2890.0 2.019566
2900.0 2.014262
2910.0 2.011714
2920.0 2.016746
2930.0 2.014394
2940.0 2.011973
2950.0 2.011330
2960.0 2.008200
2970.0 2.003163
2980.0 1.996016
2990.0 1.989695
3000.0 1.984690
3010.0 1.981876
3020.0 1.981637
3030.0 1.980574
3040.0 1.995289
3050.0 2.008859
3060.0 2.006902
3070.0 2.000120
3080.0 1.996786
3090.0 1.993803
3100.0 1.987308
3110.0 1.984712
3120.0 1.979477
3130.0 1.986055
3140.0 1.984267
3150.0 1.979957
3160.0 1.975638
3170.0 1.981081
3180.0 1.977699
3190.0 1.976999
3200.0 1.975675
3210.0 1.975051
3220.0 1.972681
3230.0 1.971909
3240.0 1.971902
3250.0 1.968693
3260.0 1.966750
3270.0 1.966563
3280.0 1.965418
3290.0 1.969319
3300.0 1.966062
3310.0 1.975365
3320.0 1.974114
3330.0 1.971190
3340.0 1.974312
3350.0 1.973929
3360.0 1.968543
3370.0 1.967912
3380.0 1.964682
3390.0 1.959376
3400.0 1.956858
3410.0 1.955562
3420.0 1.953516
3430.0 1.950604
3440.0 1.948043
3450.0 1.945525
3460.0 1.949155
3470.0 1.946032
3480.0 1.944603
3490.0 1.941802
3500.0 1.940543
3510.0 1.938598
3520.0 1.939678
3530.0 1.939373
3540.0 1.936726
3550.0 1.935135
3560.0 1.932907
3570.0 1.930673
3580.0 1.932813
3590.0 1.930855
3600.0 1.930214
3610.0 1.923412
3620.0 1.929046
3630.0 1.948036
3640.0 1.947696
3650.0 1.946155
3660.0 1.952283
3670.0 1.953305
3680.0 1.952009
3690.0 1.949460
3700.0 1.945914
3710.0 1.944274
3720.0 1.942663
3730.0 1.940518
3740.0 1.948245
3750.0 1.945532
3760.0 1.943574
3770.0 1.940911
3780.0 1.939401
3790.0 1.939747
3800.0 1.935094
3810.0 1.934135
3820.0 1.931153
3830.0 1.928394
3840.0 1.925484
3850.0 1.928999
3860.0 1.928311
3870.0 1.927136
3880.0 1.923779
3890.0 1.922224
3900.0 1.920511
3910.0 1.918752
3920.0 1.913436
3930.0 1.910271
3940.0 1.906267
3950.0 1.903812
3960.0 1.903801
3970.0 1.900485
3980.0 1.898744
3990.0 1.897923
4000.0 1.902185
4010.0 1.901690
4020.0 1.897728
4030.0 1.895763
4040.0 1.896792
4050.0 1.906058
4060.0 1.901288
4070.0 1.896121
4080.0 1.900379
4090.0 1.902180
4100.0 1.896941
4110.0 1.893696
4120.0 1.891716
4130.0 1.890614
4140.0 1.888857
4150.0 1.886894
4160.0 1.884538
4170.0 1.880386
4180.0 1.883442
4190.0 1.881449
4200.0 1.882345
4210.0 1.880008
4220.0 1.878279
4230.0 1.878299
4240.0 1.888599
4250.0 1.893664
4260.0 1.893664
4270.0 1.892335
4280.0 1.891462
4290.0 1.892175
4300.0 1.890029
4310.0 1.889541
4320.0 1.890024
4330.0 1.891850
4340.0 1.896267
4350.0 1.899821
4360.0 1.896945
4370.0 1.894953
4380.0 1.893624
4390.0 1.898793
4400.0 1.901169
4410.0 1.901008
4420.0 1.900305
4430.0 1.909104
4440.0 1.904870
4450.0 1.911876
4460.0 1.911630
4470.0 1.913506
4480.0 1.911488
4490.0 1.909056
4500.0 1.917922
4510.0 1.917180
4520.0 1.918450
4530.0 1.916174
4540.0 1.916898
4550.0 1.914971
4560.0 1.916015
4570.0 1.911427
4580.0 1.909671
4590.0 1.907559
4600.0 1.903193
4610.0 1.902668
4620.0 1.903441
4630.0 1.901544
4640.0 1.899330
4650.0 1.897670
4660.0 1.896641
4670.0 1.897929
4680.0 1.896531
4690.0 1.894438
4700.0 1.893457
4710.0 1.892929
4720.0 1.891856
4730.0 1.889107
4740.0 1.888513
4750.0 1.885441
4760.0 1.885920
4770.0 1.883008
4780.0 1.881016
4790.0 1.878207
4800.0 1.876775
4810.0 1.874871
4820.0 1.873274
4830.0 1.870990
4840.0 1.868948
4850.0 1.867587
4860.0 1.867407
4870.0 1.865319
4880.0 1.863500
4890.0 1.862993
4900.0 1.863908
4910.0 1.868217
4920.0 1.872169
4930.0 1.870063
4940.0 1.865322
4950.0 1.870385
4960.0 1.868754
4970.0 1.869858
4980.0 1.872909
4990.0 1.872769
5000.0 1.874023
5010.0 1.874336
5020.0 1.882787
5030.0 1.877289
5040.0 1.880996
5050.0 1.880415
5060.0 1.878183
5070.0 1.874992
5080.0 1.874661
5090.0 1.873390
5100.0 1.872069
5110.0 1.869437
5120.0 1.867801
5130.0 1.869886
5140.0 1.870181
5150.0 1.871407
5160.0 1.870765
5170.0 1.869512
5180.0 1.869019
5190.0 1.867446
5200.0 1.865627
5210.0 1.868878
5220.0 1.867331
5230.0 1.866165
5240.0 1.868981
5250.0 1.870595
5260.0 1.869285
5270.0 1.867178
5280.0 1.865463
5290.0 1.865432
5300.0 1.868402
5310.0 1.874052
5320.0 1.870823
5330.0 1.869352
5340.0 1.867316
5350.0 1.864801
5360.0 1.862329
5370.0 1.862584
5380.0 1.864308
5390.0 1.861794
5400.0 1.860745
5410.0 1.859595
5420.0 1.859202
5430.0 1.857766
5440.0 1.854598
5450.0 1.853187
5460.0 1.853732
5470.0 1.854362
5480.0 1.855131
5490.0 1.856170
5500.0 1.856615
5510.0 1.854988
5520.0 1.853407
5530.0 1.853537
5540.0 1.851719
5550.0 1.852229
5560.0 1.875084
5570.0 1.905382
5580.0 1.921576
5590.0 1.938193
5600.0 1.948569
5610.0 1.948339
5620.0 1.946478
5630.0 1.944153
5640.0 1.943345
5650.0 1.943308
5660.0 1.943220
5670.0 1.941283
5680.0 1.941046
5690.0 1.938557
5700.0 1.937114
5710.0 1.938228
5720.0 1.937333
5730.0 1.936627
5740.0 1.935895
5750.0 1.935355
5760.0 1.935248
5770.0 1.935150
5780.0 1.932168
5790.0 1.931763
5800.0 1.929966
5810.0 1.936933
5820.0 1.944001
5830.0 1.944748
5840.0 1.943802
5850.0 1.942943
5860.0 1.943764
5870.0 1.939603
5880.0 1.941667
5890.0 1.942781
5900.0 1.945440
5910.0 1.957557
5920.0 1.956937
5930.0 1.958507
5940.0 1.960910
5950.0 1.963169
5960.0 1.961337
5970.0 1.961495
5980.0 1.959720
5990.0 1.960155
6000.0 1.962449
6010.0 1.975651
6020.0 1.989403
6030.0 1.987687
6040.0 1.986890
6050.0 1.986964
6060.0 1.986209
6070.0 1.985215
6080.0 1.986360
6090.0 1.982023
6100.0 1.983858
6110.0 1.981745
6120.0 1.980542
6130.0 1.981471
6140.0 1.981401
6150.0 1.979121
6160.0 1.978435
6170.0 1.977460
6180.0 1.976327
6190.0 1.977776
6200.0 1.976157
6210.0 1.976651
6220.0 1.978945
6230.0 1.978459
6240.0 1.977987
6250.0 1.979204
6260.0 1.980228
6270.0 1.981293
6280.0 1.987499
6290.0 1.987011
6300.0 1.985440
6310.0 1.984518
6320.0 1.986955
6330.0 1.989135
6340.0 1.987879
6350.0 1.995067
6360.0 1.995694
6370.0 1.994110
6380.0 1.994364
6390.0 1.992489
6400.0 1.991720
6410.0 1.990202
6420.0 1.995852
6430.0 2.001987
6440.0 2.006060
6450.0 2.003246
6460.0 2.002067
6470.0 2.001213
6480.0 1.998472
6490.0 2.006498
6500.0 2.010561
6510.0 2.007786
6520.0 2.006882
6530.0 2.007186
6540.0 2.005690
6550.0 2.003121
6560.0 2.000436
6570.0 2.004125
6580.0 2.002214
6590.0 2.000785
6600.0 1.998968
6610.0 1.997046
6620.0 1.996423
6630.0 1.995059
6640.0 1.993910
6650.0 1.991486
6660.0 1.990681
6670.0 1.989132
6680.0 1.987671
6690.0 1.986798
6700.0 1.986855
6710.0 1.988951
6720.0 1.989362
6730.0 1.988476
6740.0 1.987192
6750.0 1.985739
6760.0 1.983625
6770.0 1.981694
6780.0 1.984977
6790.0 1.991095
6800.0 1.999527
6810.0 1.998604
6820.0 1.996348
6830.0 1.993003
6840.0 1.992202
6850.0 1.992177
6860.0 1.995765
6870.0 1.995394
6880.0 1.995160
6890.0 1.994350
6900.0 1.995871
6910.0 1.993067
6920.0 2.001047
6930.0 2.008358
6940.0 2.018222
6950.0 2.021776
6960.0 2.021286
6970.0 2.020129
6980.0 2.020506
6990.0 2.017752
7000.0 2.016955
7010.0 2.015744
7020.0 2.013442
7030.0 2.011969
7040.0 2.011103
7050.0 2.008298
7060.0 2.009488
7070.0 2.008515
7080.0 2.008390
7090.0 2.008593
7100.0 2.005900
7110.0 2.011141
7120.0 2.010493
7130.0 2.010203
7140.0 2.009454
7150.0 2.008885
7160.0 2.006775
7170.0 2.005414
7180.0 2.005886
7190.0 2.005149
7200.0 2.002305
7210.0 2.002293
7220.0 2.002620
7230.0 2.006307
7240.0 2.004373
7250.0 2.003645
7260.0 2.001918
7270.0 2.002599
7280.0 2.002014
7290.0 2.001377
7300.0 2.001913
7310.0 2.011154
7320.0 2.022286
7330.0 2.032462
7340.0 2.036752
7350.0 2.039399
7360.0 2.041561
7370.0 2.040579
7380.0 2.039011
7390.0 2.037028
7400.0 2.035349
7410.0 2.033926
7420.0 2.033548
7430.0 2.033557
7440.0 2.031568
7450.0 2.031015
7460.0 2.033896
7470.0 2.032668
7480.0 2.030436
7490.0 2.030973
7500.0 2.030669
7510.0 2.028543
7520.0 2.027413
7530.0 2.028049
7540.0 2.027398
7550.0 2.026600
7560.0 2.026356
7570.0 2.025707
7580.0 2.028175
7590.0 2.025795
7600.0 2.024177
7610.0 2.026010
7620.0 2.024376
7630.0 2.023234
7640.0 2.020959
7650.0 2.020268
7660.0 2.020491
7670.0 2.018311
7680.0 2.017554
7690.0 2.017554
7700.0 2.016833
7710.0 2.017078
7720.0 2.016376
7730.0 2.015147
7740.0 2.014721
7750.0 2.013921
7760.0 2.013042
7770.0 2.010208
7780.0 2.009311
7790.0 2.009346
7800.0 2.008042
7810.0 2.006991
7820.0 2.006288
7830.0 2.005267
7840.0 2.004079
7850.0 2.004247
7860.0 2.002398
7870.0 2.001784
7880.0 1.999323
7890.0 1.998692
7900.0 1.997678
7910.0 1.997480
7920.0 1.996510
7930.0 1.996413
7940.0 1.996851
7950.0 1.993988
7960.0 1.993397
7970.0 1.992285
7980.0 1.995088
7990.0 1.996128
8000.0 1.997493
8010.0 1.995984
8020.0 1.997274
8030.0 1.998863
8040.0 1.996963
8050.0 1.996107
8060.0 1.995511
8070.0 1.995091
8080.0 1.993768
8090.0 1.990737
8100.0 1.993282
8110.0 1.991363
8120.0 1.991060
8130.0 1.991105
8140.0 1.989843
8150.0 1.989159
8160.0 1.988394
8170.0 1.988006
8180.0 1.987693
8190.0 1.987019
8200.0 1.987126
8210.0 1.985770
8220.0 1.985441
8230.0 1.984777
8240.0 1.983923
8250.0 1.983165
8260.0 1.981579
8270.0 1.980651
8280.0 1.980905
8290.0 1.981039
8300.0 1.979683
8310.0 1.979261
8320.0 1.979503
8330.0 1.979077
8340.0 1.979632
8350.0 1.979106
8360.0 1.978390
8370.0 1.977588
8380.0 1.978309
8390.0 1.978405
8400.0 1.977135
8410.0 1.975367
8420.0 1.982403
8430.0 1.993224
8440.0 1.998236
8450.0 1.997754
8460.0 2.003986
8470.0 2.006731
8480.0 2.009364
8490.0 2.009170
8500.0 2.008338
8510.0 2.009444
8520.0 2.009365
8530.0 2.010793
8540.0 2.010392
8550.0 2.009697
8560.0 2.007496
8570.0 2.007057
8580.0 2.004987
8590.0 2.003226
8600.0 2.005575
8610.0 2.005977
8620.0 2.015748
8630.0 2.019389
8640.0 2.020664
8650.0 2.020587
8660.0 2.022382
8670.0 2.025746
8680.0 2.024866
8690.0 2.024052
8700.0 2.022139
8710.0 2.023602
8720.0 2.026956
8730.0 2.025373
8740.0 2.023593
8750.0 2.022086
8760.0 2.022502
8770.0 2.021437
8780.0 2.021456
8790.0 2.021338
8800.0 2.020319
8810.0 2.018891
8820.0 2.018287
8830.0 2.018474
8840.0 2.016700
8850.0 2.013937
8860.0 2.012710
8870.0 2.012497
8880.0 2.011657
8890.0 2.010880
8900.0 2.011939
8910.0 2.010821
8920.0 2.010079
8930.0 2.009660
8940.0 2.009125
8950.0 2.008282
8960.0 2.011498
8970.0 2.021181
8980.0 2.028324
8990.0 2.029388
9000.0 2.028864
9010.0 2.028969
9020.0 2.027064
9030.0 2.025867
9040.0 2.025762
9050.0 2.026714
9060.0 2.027059
9070.0 2.026296
9080.0 2.024833
9090.0 2.025357
9100.0 2.023046
9110.0 2.023132
9120.0 2.021614
9130.0 2.019606
9140.0 2.018739
9150.0 2.016222
9160.0 2.013615
9170.0 2.018949
9180.0 2.025221
9190.0 2.035785
9200.0 2.042686
9210.0 2.042166
9220.0 2.041100
9230.0 2.043662
9240.0 2.043073
9250.0 2.043032
9260.0 2.042712
9270.0 2.041273
9280.0 2.039441
9290.0 2.038673
9300.0 2.037257
9310.0 2.036637
9320.0 2.035868
9330.0 2.035609
9340.0 2.035653
9350.0 2.034407
9360.0 2.045916
9370.0 2.048422
9380.0 2.048270
9390.0 2.047432
9400.0 2.046185
9410.0 2.046981
9420.0 2.046650
9430.0 2.046277
9440.0 2.045951
9450.0 2.044230
9460.0 2.042492
9470.0 2.041546
9480.0 2.043765
9490.0 2.050662
9500.0 2.051125
9510.0 2.064238
9520.0 2.075274
9530.0 2.074283
9540.0 2.072944
9550.0 2.071519
9560.0 2.071756
9570.0 2.070056
9580.0 2.071417
9590.0 2.070573
9600.0 2.069814
9610.0 2.068598
9620.0 2.068152
9630.0 2.065533
9640.0 2.064110
9650.0 2.064099
9660.0 2.064394
9670.0 2.063247
9680.0 2.062602
9690.0 2.059880
9700.0 2.058440
9710.0 2.057531
9720.0 2.057021
9730.0 2.055670
9740.0 2.055670
9750.0 2.056917
9760.0 2.054202
9770.0 2.057878
9780.0 2.058010
9790.0 2.060992
9800.0 2.064178
9810.0 2.063504
9820.0 2.063233
9830.0 2.062654
9840.0 2.061643
9850.0 2.060773
9860.0 2.060256
9870.0 2.058955
9880.0 2.058829
9890.0 2.058215
9900.0 2.057448
9910.0 2.058542
9920.0 2.057258
9930.0 2.056196
9940.0 2.056214
9950.0 2.058577
9960.0 2.058132
9970.0 2.058089
9980.0 2.057199
9990.0 2.056181
10000.0 2.056178
10010.0 2.054632
10020.0 2.053968
10030.0 2.053058
10040.0 2.051610
10050.0 2.050391
10060.0 2.048926
10070.0 2.048002
10080.0 2.048003
10090.0 2.046365
10100.0 2.045794
10110.0 2.045027
10120.0 2.042975
10130.0 2.044707
10140.0 2.045210
10150.0 2.047350
10160.0 2.051832
10170.0 2.050404
10180.0 2.054039
10190.0 2.052847
10200.0 2.052385
10210.0 2.051328
10220.0 2.049683
10230.0 2.050642
10240.0 2.049196
10250.0 2.047898
10260.0 2.047952
10270.0 2.047340
10280.0 2.045957
10290.0 2.045406
10300.0 2.044928
10310.0 2.043932
10320.0 2.043560
10330.0 2.042642
10340.0 2.042429
10350.0 2.043714
10360.0 2.042947
10370.0 2.040649
10380.0 2.039793
10390.0 2.039342
10400.0 2.039370
10410.0 2.037644
10420.0 2.036740
10430.0 2.035348
10440.0 2.034019
10450.0 2.034353
10460.0 2.044914
10470.0 2.055290
10480.0 2.061023
10490.0 2.063340
10500.0 2.064251
10510.0 2.063393
10520.0 2.066200
10530.0 2.066016
10540.0 2.065420
10550.0 2.063318
10560.0 2.062299
10570.0 2.061352
10580.0 2.061794
10590.0 2.061293
10600.0 2.061967
10610.0 2.063854
10620.0 2.063421
10630.0 2.063035
10640.0 2.061937
10650.0 2.061751
10660.0 2.060773
10670.0 2.059864
10680.0 2.059254
10690.0 2.058510
10700.0 2.056859
10710.0 2.056160
10720.0 2.054577
10730.0 2.053537
10740.0 2.051780
10750.0 2.051642
10760.0 2.053600
10770.0 2.053520
10780.0 2.053900
10790.0 2.052898
10800.0 2.055711
10810.0 2.055387
10820.0 2.054778
10830.0 2.053814
10840.0 2.053470
10850.0 2.052920
10860.0 2.051519
10870.0 2.051241
10880.0 2.050518
10890.0 2.049174
10900.0 2.050413
10910.0 2.050452
10920.0 2.051779
10930.0 2.052490
10940.0 2.052232
10950.0 2.052150
10960.0 2.051961
10970.0 2.050703
10980.0 2.049139
10990.0 2.050551
11000.0 2.050352
11010.0 2.049125
11020.0 2.048607
11030.0 2.047611
11040.0 2.048934
11050.0 2.048733
11060.0 2.047366
11070.0 2.046463
11080.0 2.046638
11090.0 2.046385
11100.0 2.045399
11110.0 2.044472
11120.0 2.051280
11130.0 2.051205
11140.0 2.051499
11150.0 2.050162
11160.0 2.049550
11170.0 2.048072
11180.0 2.049686
11190.0 2.048885
11200.0 2.047819
11210.0 2.046635
11220.0 2.045734
11230.0 2.047499
11240.0 2.046639
11250.0 2.046156
11260.0 2.047127
11270.0 2.048744
11280.0 2.047123
11290.0 2.052228
11300.0 2.051331
11310.0 2.050755
11320.0 2.050370
11330.0 2.047979
11340.0 2.047905
11350.0 2.047988
11360.0 2.047899
11370.0 2.047221
11380.0 2.045600
11390.0 2.049669
11400.0 2.049436
11410.0 2.049840
11420.0 2.048878
11430.0 2.049253
11440.0 2.048269
11450.0 2.049164
11460.0 2.048353
11470.0 2.046047
11480.0 2.044625
11490.0 2.044501
11500.0 2.043346
11510.0 2.042665
11520.0 2.041177
11530.0 2.040939
11540.0 2.040582
11550.0 2.039855
11560.0 2.038944
11570.0 2.038249
11580.0 2.037117
11590.0 2.036741
11600.0 2.035735
11610.0 2.035844
11620.0 2.035716
11630.0 2.035667
11640.0 2.035157
11650.0 2.035503
11660.0 2.033075
11670.0 2.033414
11680.0 2.032962
11690.0 2.032289
11700.0 2.031478
11710.0 2.033408
11720.0 2.032585
11730.0 2.032777
11740.0 2.032125
11750.0 2.035137
11760.0 2.040325
11770.0 2.040359
11780.0 2.039181
11790.0 2.041181
11800.0 2.040508
11810.0 2.039169
11820.0 2.038480
11830.0 2.039629
11840.0 2.039756
11850.0 2.038959
11860.0 2.037593
11870.0 2.037023
11880.0 2.035376
11890.0 2.034361
11900.0 2.034212
11910.0 2.033765
11920.0 2.033229
11930.0 2.032559
11940.0 2.033270
11950.0 2.032095
11960.0 2.030622
11970.0 2.031014
11980.0 2.030225
11990.0 2.029141
12000.0 2.028253
12010.0 2.028140
12020.0 2.026767
12030.0 2.025292
12040.0 2.025609
12050.0 2.025938
12060.0 2.026130
12070.0 2.024874
12080.0 2.024054
12090.0 2.025358
12100.0 2.026824
12110.0 2.026820
12120.0 2.027815
12130.0 2.027035
12140.0 2.026511
12150.0 2.025787
12160.0 2.026182
12170.0 2.025708
12180.0 2.024316
12190.0 2.024967
12200.0 2.025948
12210.0 2.029202
12220.0 2.030541
12230.0 2.030825
12240.0 2.030149
12250.0 2.029220
12260.0 2.028672
12270.0 2.027595
12280.0 2.028671
12290.0 2.029690
12300.0 2.029319
12310.0 2.029767
12320.0 2.030246
12330.0 2.033552
12340.0 2.034402
12350.0 2.035179
12360.0 2.034970
12370.0 2.035150
12380.0 2.034657
12390.0 2.034091
12400.0 2.033066
12410.0 2.032674
12420.0 2.032065
12430.0 2.031181
12440.0 2.030570
12450.0 2.029324
12460.0 2.028850
12470.0 2.027143
12480.0 2.026526
12490.0 2.027311
12500.0 2.026349
12510.0 2.026334
12520.0 2.025243
12530.0 2.023971
12540.0 2.026398
12550.0 2.025984
12560.0 2.025601
12570.0 2.024311
12580.0 2.024414
12590.0 2.023991
12600.0 2.023414
12610.0 2.023588
12620.0 2.023924
12630.0 2.025983
12640.0 2.025916
12650.0 2.025907
12660.0 2.027777
12670.0 2.027313
12680.0 2.030874
12690.0 2.031240
12700.0 2.031150
12710.0 2.030800
12720.0 2.030696
12730.0 2.029824
12740.0 2.029648
12750.0 2.029176
12760.0 2.028204
12770.0 2.026786
12780.0 2.025905
12790.0 2.026819
12800.0 2.026816
12810.0 2.026945
12820.0 2.026163
12830.0 2.025883
12840.0 2.026213
12850.0 2.026341
12860.0 2.025916
12870.0 2.024882
12880.0 2.026142
12890.0 2.024743
12900.0 2.025058
12910.0 2.024155
12920.0 2.023363
12930.0 2.023317
12940.0 2.023340
12950.0 2.022482
12960.0 2.023027
12970.0 2.022402
12980.0 2.021945
12990.0 2.021925
13000.0 2.021358
13010.0 2.024884
13020.0 2.025328
13030.0 2.024748
13040.0 2.024302
13050.0 2.023918
13060.0 2.022646
13070.0 2.021589
13080.0 2.020736
13090.0 2.020037
13100.0 2.019578
13110.0 2.018673
13120.0 2.018762
13130.0 2.017953
13140.0 2.018444
13150.0 2.017429
13160.0 2.017252
13170.0 2.016554
13180.0 2.015924
13190.0 2.017344
13200.0 2.017084
13210.0 2.017463
13220.0 2.016287
13230.0 2.016326
13240.0 2.015545
13250.0 2.015070
13260.0 2.014178
13270.0 2.013687
13280.0 2.013454
13290.0 2.013864
13300.0 2.013025
13310.0 2.013006
13320.0 2.016246
13330.0 2.015932
13340.0 2.014886
13350.0 2.014106
13360.0 2.013786
13370.0 2.016423
13380.0 2.016055
13390.0 2.016198
13400.0 2.015925
13410.0 2.015106
13420.0 2.015856
13430.0 2.015758
13440.0 2.014625
13450.0 2.014147
13460.0 2.013612
13470.0 2.012672
13480.0 2.012214
13490.0 2.011005
13500.0 2.011652
13510.0 2.010743
13520.0 2.009066
13530.0 2.009206
13540.0 2.009828
13550.0 2.009398
13560.0 2.010466
13570.0 2.010162
13580.0 2.009836
13590.0 2.009072
13600.0 2.008035
13610.0 2.007473
13620.0 2.007241
13630.0 2.006599
13640.0 2.006192
13650.0 2.005353
13660.0 2.004459
13670.0 2.004382
13680.0 2.003965
13690.0 2.005797
13700.0 2.004341
13710.0 2.003278
13720.0 2.003404
13730.0 2.003471
13740.0 2.001714
13750.0 2.001135
13760.0 2.000388
13770.0 1.999824
13780.0 1.998570
13790.0 1.998812
13800.0 1.999011
13810.0 1.998719
13820.0 1.998254
13830.0 1.996953
13840.0 1.998496
13850.0 1.997882
13860.0 1.997343
13870.0 1.997265
13880.0 1.997801
13890.0 1.998100
13900.0 1.997144
13910.0 1.997123
13920.0 1.996584
13930.0 1.995775
13940.0 1.995166
13950.0 1.995070
13960.0 1.994862
13970.0 1.994542
13980.0 1.997407
13990.0 2.001247
14000.0 2.001122
14010.0 2.001023
14020.0 2.000536
14030.0 2.000224
14040.0 2.000473
14050.0 1.999498
14060.0 1.999425
14070.0 1.999095
14080.0 1.998485
14090.0 1.997906
14100.0 1.997553
14110.0 1.997174
14120.0 1.998413
14130.0 1.999335
14140.0 1.998486
14150.0 1.997802
14160.0 1.998092
14170.0 1.999537
14180.0 1.999068
14190.0 1.998987
14200.0 1.998010
14210.0 1.998240
14220.0 1.997446
14230.0 1.997471
14240.0 1.997922
14250.0 1.997208
14260.0 1.998048
14270.0 1.997457
14280.0 1.997047
14290.0 1.997188
14300.0 1.996008
14310.0 1.995878
14320.0 1.995195
14330.0 1.995023
14340.0 1.994883
14350.0 1.995161
14360.0 1.994635
14370.0 1.993664
14380.0 1.993801
14390.0 1.995209
14400.0 1.995266
14410.0 1.997662
14420.0 1.997265
14430.0 1.996516
14440.0 1.996336
14450.0 1.995456
14460.0 1.995217
14470.0 1.994616
14480.0 1.995268
14490.0 1.994965
14500.0 1.995391
14510.0 1.995398
14520.0 1.995892
14530.0 1.995862
14540.0 1.995623
14550.0 1.995187
14560.0 1.994615
14570.0 1.994921
14580.0 1.995514
14590.0 1.994572
14600.0 1.993580
14610.0 1.992777
14620.0 1.992445
14630.0 1.992135
14640.0 1.991338
14650.0 1.990092
14660.0 1.989327
14670.0 1.989051
14680.0 1.988522
14690.0 1.988438
14700.0 1.987043
14710.0 1.986341
14720.0 1.985617
14730.0 1.985919
14740.0 1.985749
14750.0 1.984223
14760.0 1.984640
14770.0 1.984249
14780.0 1.983351
14790.0 1.985153
14800.0 1.985807
14810.0 1.984602
14820.0 1.984566
14830.0 1.985013
14840.0 1.984947
14850.0 1.984742
14860.0 1.984105
14870.0 1.985758
14880.0 1.987830
14890.0 1.988224
14900.0 1.991223
14910.0 1.991130
14920.0 1.991723
14930.0 1.990996
14940.0 1.990453
14950.0 1.990184
14960.0 1.989711
14970.0 1.989248
14980.0 1.993462
14990.0 1.993651
15000.0 1.994059
15010.0 1.993792
15020.0 1.994381
15030.0 1.993993
15040.0 1.994492
15050.0 1.995575
15060.0 1.995708
15070.0 1.995093
15080.0 1.994414
15090.0 1.993541
15100.0 1.992463
15110.0 1.992439
15120.0 1.991746
15130.0 1.991493
15140.0 1.990665
15150.0 1.989039
15160.0 1.988482
15170.0 1.988538
15180.0 1.988755
15190.0 1.988267
15200.0 1.987951
15210.0 1.987837
15220.0 1.989171
15230.0 1.990269
15240.0 1.993398
15250.0 1.993852
15260.0 1.993323
15270.0 1.992780
15280.0 1.992294
15290.0 1.997919
15300.0 1.999916
15310.0 2.000783
15320.0 2.003304
15330.0 2.003252
15340.0 2.002544
15350.0 2.003441
15360.0 2.003405
15370.0 2.003338
15380.0 2.003334
15390.0 2.002064
15400.0 2.004004
15410.0 2.003650
15420.0 2.002998
15430.0 2.002594
15440.0 2.001638
15450.0 2.001848
15460.0 2.001056
15470.0 2.001347
15480.0 2.000673
15490.0 1.999717
15500.0 1.998459
15510.0 1.998280
15520.0 1.997830
15530.0 1.997899
15540.0 1.997280
15550.0 1.996997
15560.0 1.996112
15570.0 1.995649
15580.0 1.995583
15590.0 1.994947
15600.0 1.997047
15610.0 1.997699
15620.0 1.997342
15630.0 1.996651
15640.0 1.996228
15650.0 1.996417
15660.0 1.995652
15670.0 1.997488
15680.0 1.997450
15690.0 1.997360
15700.0 1.997216
15710.0 1.996317
15720.0 1.995907
15730.0 1.995745
15740.0 1.995414
15750.0 1.995212
15760.0 1.995079
15770.0 1.994605
15780.0 1.994402
15790.0 1.993352
15800.0 1.993198
15810.0 1.992387
15820.0 1.991653
15830.0 1.991378
15840.0 1.991510
15850.0 1.991015
15860.0 1.990098
15870.0 1.990073
15880.0 1.991954
15890.0 1.990838
15900.0 1.993009
15910.0 1.992880
15920.0 1.992220
15930.0 1.991014
15940.0 1.992212
15950.0 1.991935
15960.0 1.990962
15970.0 1.990597
15980.0 1.990609
15990.0 1.990192
16000.0 1.990276
16010.0 1.989569
16020.0 1.989464
16030.0 1.989593
16040.0 1.990666
16050.0 1.989881
16060.0 1.990362
16070.0 1.990160
16080.0 1.989936
16090.0 1.989004
16100.0 1.990072
16110.0 1.989590
16120.0 1.988272
16130.0 1.987949
16140.0 1.987410
16150.0 1.987476
16160.0 1.989482
16170.0 1.989326
16180.0 1.988354
16190.0 1.987773
16200.0 1.987697
16210.0 1.987181
16220.0 1.987181
16230.0 1.986703
16240.0 1.987470
16250.0 1.986630
16260.0 1.986568
16270.0 1.985682
16280.0 1.985604
16290.0 1.985796
16300.0 1.985059
16310.0 1.984573
16320.0 1.986206
16330.0 1.986038
16340.0 1.986001
16350.0 1.985898
16360.0 1.985045
16370.0 1.984944
16380.0 1.983968
16390.0 1.983371
16400.0 1.982493
16410.0 1.982183
16420.0 1.981062
16430.0 1.982693
16440.0 1.982666
16450.0 1.981679
16460.0 1.981282
16470.0 1.980587
16480.0 1.980220
16490.0 1.980220
16500.0 1.980356
16510.0 1.979795
16520.0 1.979269
16530.0 1.979227
16540.0 1.979022
16550.0 1.978692
16560.0 1.978959
16570.0 1.978767
16580.0 1.978464
16590.0 1.977998
16600.0 1.977317
16610.0 1.977944
16620.0 1.978911
16630.0 1.982109
16640.0 1.982000
16650.0 1.981038
16660.0 1.981708
16670.0 1.982418
16680.0 1.981637
16690.0 1.981206
16700.0 1.983011
16710.0 1.983626
16720.0 1.983331
16730.0 1.983002
16740.0 1.982779
16750.0 1.983215
16760.0 1.982909
16770.0 1.982150
16780.0 1.985465
16790.0 1.987413
16800.0 1.987070
16810.0 1.988440
16820.0 1.988349
16830.0 1.987969
16840.0 1.987558
16850.0 1.986760
16860.0 1.985768
16870.0 1.985264
16880.0 1.984454
16890.0 1.984175
16900.0 1.983248
16910.0 1.983870
16920.0 1.983148
16930.0 1.982849
16940.0 1.982107
16950.0 1.982059
16960.0 1.981538
16970.0 1.981904
16980.0 1.981375
16990.0 1.981067
17000.0 1.980622
17010.0 1.981408
17020.0 1.980846
17030.0 1.981223
17040.0 1.980154
17050.0 1.979902
17060.0 1.978924
17070.0 1.978410
17080.0 1.977986
17090.0 1.978094
17100.0 1.977393
17110.0 1.981335
17120.0 1.982720
17130.0 1.984067
17140.0 1.985555
17150.0 1.985521
17160.0 1.985763
17170.0 1.986857
17180.0 1.985712
17190.0 1.990490
17200.0 1.993434
17210.0 1.993067
17220.0 1.992419
17230.0 1.992467
17240.0 1.993285
17250.0 1.992815
17260.0 1.993171
17270.0 1.993117
17280.0 1.993832
17290.0 1.993885
17300.0 1.993475
17310.0 1.992704
17320.0 1.992204
17330.0 1.992480
17340.0 1.994267
17350.0 1.993183
17360.0 1.994387
17370.0 1.993961
17380.0 1.993763
17390.0 1.992937
17400.0 1.992755
17410.0 1.992020
17420.0 1.992301
17430.0 1.992596
17440.0 1.993824
17450.0 1.994007
17460.0 1.993380
17470.0 1.993300
17480.0 1.994162
17490.0 1.993646
17500.0 1.993313
17510.0 1.992881
17520.0 1.992869
17530.0 1.992468
17540.0 1.992588
17550.0 1.992284
17560.0 1.992017
17570.0 1.991572
17580.0 1.991276
17590.0 1.990990
17600.0 1.991132
17610.0 1.991229
17620.0 1.990953
17630.0 1.989480
17640.0 1.988707
17650.0 1.988578
17660.0 1.988186
17670.0 1.987595
17680.0 1.987634
17690.0 1.987190
17700.0 1.987381
17710.0 1.986618
17720.0 1.986617
17730.0 1.986471
17740.0 1.986502
17750.0 1.985751
17760.0 1.984928
17770.0 1.985990
17780.0 1.986690
17790.0 1.986280
17800.0 1.985993
17810.0 1.985790
17820.0 1.985727
17830.0 1.985013
17840.0 1.985811
17850.0 1.985277
17860.0 1.984196
17870.0 1.983420
17880.0 1.982684
17890.0 1.982553
17900.0 1.982269
17910.0 1.983467
17920.0 1.984005
17930.0 1.983316
17940.0 1.983183
17950.0 1.982865
17960.0 1.982517
17970.0 1.982077
17980.0 1.981737
17990.0 1.982826
18000.0 1.982928
18010.0 1.985626
18020.0 1.990959
18030.0 1.990966
18040.0 1.990587
18050.0 1.991253
18060.0 1.991205
18070.0 1.990346
18080.0 1.989877
18090.0 1.989421
18100.0 1.988868
18110.0 1.987986
18120.0 1.986948
18130.0 1.986295
18140.0 1.988883
18150.0 1.990223
18160.0 1.989225
18170.0 1.989711
18180.0 1.989220
18190.0 1.989484
18200.0 1.989186
18210.0 1.988435
18220.0 1.987821
18230.0 1.987288
18240.0 1.986480
18250.0 1.986908
18260.0 1.986689
18270.0 1.986382
18280.0 1.987538
18290.0 1.988517
18300.0 1.988584
18310.0 1.987872
18320.0 1.987622
18330.0 1.987350
18340.0 1.986628
18350.0 1.985540
18360.0 1.986263
18370.0 1.985422
18380.0 1.984871
18390.0 1.985219
18400.0 1.984238
18410.0 1.984352
18420.0 1.984135
18430.0 1.984249
18440.0 1.984031
18450.0 1.983540
18460.0 1.982991
18470.0 1.982907
18480.0 1.982489
18490.0 1.982423
18500.0 1.982622
18510.0 1.982208
18520.0 1.982745
18530.0 1.987797
18540.0 1.990895
18550.0 1.990934
18560.0 1.990062
18570.0 1.989086
18580.0 1.991124
18590.0 1.994044
18600.0 1.993486
18610.0 1.993384
18620.0 1.992332
18630.0 1.992354
18640.0 1.993035
18650.0 1.996870
18660.0 1.998341
18670.0 1.997760
18680.0 1.997190
18690.0 1.997200
18700.0 1.996620
18710.0 1.995893
18720.0 1.995772
18730.0 1.995494
18740.0 1.994708
18750.0 1.994144
18760.0 1.995720
18770.0 1.995732
18780.0 1.994427
18790.0 1.994960
18800.0 1.994594
18810.0 1.994605
18820.0 1.993910
18830.0 1.995567
18840.0 1.995038
18850.0 1.994835
18860.0 1.995152
18870.0 1.995634
18880.0 1.997690
18890.0 1.997165
18900.0 1.996737
18910.0 1.997703
18920.0 1.996810
18930.0 1.996205
18940.0 1.996097
18950.0 1.995458
18960.0 1.994498
18970.0 1.994579
18980.0 1.993975
18990.0 1.994880
19000.0 1.995624
19010.0 1.994483
19020.0 1.995380
19030.0 1.995128
19040.0 1.994855
19050.0 1.995300
19060.0 1.995379
19070.0 1.994804
19080.0 1.994674
19090.0 1.994069
19100.0 1.993664
19110.0 1.996176
19120.0 1.995683
19130.0 1.995992
19140.0 1.995753
19150.0 1.997789
19160.0 1.997732
19170.0 1.997732
19180.0 1.996953
19190.0 1.996827
19200.0 1.996196
19210.0 1.995442
19220.0 1.995201
19230.0 1.994931
19240.0 1.996372
19250.0 1.996094
19260.0 1.996350
19270.0 1.995739
19280.0 1.996135
19290.0 1.995806
19300.0 1.995215
19310.0 1.994369
19320.0 1.996583
19330.0 1.999219
19340.0 2.001626
19350.0 2.002573
19360.0 2.002041
19370.0 2.001293
19380.0 2.000890
19390.0 2.000833
19400.0 2.000525
19410.0 2.001212
19420.0 2.000671
19430.0 2.000656
19440.0 2.000206
19450.0 2.000247
19460.0 1.999654
19470.0 1.999648
19480.0 1.998206
19490.0 1.998088
19500.0 1.997322
19510.0 1.997718
19520.0 1.998471
19530.0 1.998101
19540.0 1.997683
19550.0 1.997051
19560.0 1.997281
19570.0 1.996683
19580.0 1.996649
19590.0 1.996196
19600.0 1.997379
19610.0 1.997038
19620.0 1.996846
19630.0 1.996731
19640.0 1.996193
19650.0 1.995660
19660.0 1.995697
19670.0 1.995455
19680.0 1.995178
19690.0 1.994789
19700.0 1.994226
19710.0 1.994038
19720.0 1.995226
19730.0 1.995024
19740.0 1.994440
19750.0 1.998571
19760.0 2.001594
19770.0 2.003291
19780.0 2.004477
19790.0 2.004027
19800.0 2.003976
19810.0 2.004085
19820.0 2.003663
19830.0 2.003495
19840.0 2.003199
19850.0 2.004620
19860.0 2.004238
19870.0 2.004696
19880.0 2.004362
19890.0 2.004463
19900.0 2.004697
19910.0 2.004103
19920.0 2.005031
19930.0 2.004967
19940.0 2.004611
19950.0 2.006630
19960.0 2.009545
19970.0 2.009934
19980.0 2.009463
19990.0 2.008957
20000.0 2.008997
20010.0 2.008673
20020.0 2.008026
20030.0 2.007051
20040.0 2.006360
20050.0 2.006050
20060.0 2.005540
20070.0 2.004563
20080.0 2.004769
20090.0 2.005558
20100.0 2.005430
20110.0 2.005042
20120.0 2.006010
20130.0 2.006210
20140.0 2.008105
20150.0 2.009543
20160.0 2.009078
20170.0 2.008721
20180.0 2.008777
20190.0 2.008478
20200.0 2.008270
20210.0 2.008346
20220.0 2.008209
20230.0 2.007825
20240.0 2.009992
20250.0 2.011818
20260.0 2.014187
20270.0 2.013693
20280.0 2.013252
20290.0 2.013995
20300.0 2.013897
20310.0 2.013339
20320.0 2.013113
20330.0 2.012932
20340.0 2.012772
20350.0 2.012072
20360.0 2.011734
20370.0 2.010923
20380.0 2.010996
20390.0 2.011036
20400.0 2.011713
20410.0 2.011717
20420.0 2.011217
20430.0 2.010942
20440.0 2.010544
20450.0 2.009758
20460.0 2.009598
20470.0 2.008924
20480.0 2.008763
20490.0 2.008532
20500.0 2.008452
20510.0 2.009044
20520.0 2.008603
20530.0 2.008908
20540.0 2.008347
20550.0 2.007843
20560.0 2.007201
20570.0 2.006715
20580.0 2.010492
20590.0 2.009889
20600.0 2.009631
20610.0 2.008938
20620.0 2.008526
20630.0 2.007811
20640.0 2.007742
20650.0 2.007399
20660.0 2.007213
20670.0 2.006662
20680.0 2.006858
20690.0 2.006766
20700.0 2.006525
20710.0 2.006052
20720.0 2.006455
20730.0 2.006266
20740.0 2.005515
20750.0 2.004815
20760.0 2.005121
20770.0 2.004590
20780.0 2.004977
20790.0 2.004762
20800.0 2.003701
20810.0 2.003460
20820.0 2.002439
20830.0 2.001908
20840.0 2.001390
20850.0 2.002213
20860.0 2.001745
20870.0 2.002079
20880.0 2.001113
20890.0 2.000529
20900.0 1.999921
20910.0 1.999922
20920.0 1.999761
20930.0 1.999794
20940.0 1.999717
20950.0 1.999467
20960.0 1.998749
20970.0 1.998730
20980.0 1.998659
20990.0 1.998522
21000.0 1.998253
21010.0 1.998273
21020.0 1.998277
21030.0 1.997835
21040.0 1.997592
21050.0 1.998611
21060.0 1.998556
21070.0 1.999051
21080.0 1.999081
21090.0 1.998841
21100.0 1.999024
21110.0 1.999073
21120.0 1.998238
21130.0 1.998144
21140.0 1.997644
21150.0 1.996992
21160.0 1.996642
21170.0 1.997088
21180.0 1.996766
21190.0 1.996680
21200.0 1.996415
21210.0 1.997856
21220.0 1.999142
21230.0 1.998799
21240.0 1.999015
21250.0 1.998993
21260.0 1.998888
21270.0 1.998542
21280.0 1.997858
21290.0 1.997367
21300.0 1.996941
21310.0 1.996463
21320.0 1.996029
21330.0 1.995669
21340.0 1.996840
21350.0 1.996805
21360.0 1.996199
21370.0 1.996024
21380.0 1.995842
21390.0 1.995674
21400.0 1.995276
21410.0 1.995349
21420.0 1.997184
21430.0 1.996917
21440.0 1.996260
21450.0 1.997345
21460.0 1.996606
21470.0 1.997227
21480.0 1.997150
21490.0 1.996861
21500.0 1.996783
21510.0 1.996544
21520.0 1.995886
21530.0 1.995597
21540.0 1.995445
21550.0 1.994761
21560.0 1.995065
21570.0 1.994805
21580.0 1.994248
21590.0 1.994000
21600.0 1.993684
21610.0 1.994018
21620.0 1.993870
21630.0 1.993215
21640.0 1.993506
21650.0 1.993336
21660.0 1.992608
21670.0 1.992742
21680.0 1.992262
21690.0 1.992206
21700.0 1.991738
21710.0 1.991449
21720.0 1.992538
21730.0 1.992481
21740.0 1.992543
21750.0 1.992599
21760.0 1.992283
21770.0 1.991672
21780.0 1.991554
21790.0 1.990980
21800.0 1.990489
21810.0 1.990520
21820.0 1.990292
21830.0 1.991663
21840.0 1.993348
21850.0 1.993741
21860.0 1.994118
21870.0 1.993513
21880.0 1.993418
21890.0 1.992217
21900.0 1.992199
21910.0 1.997542
21920.0 2.000034
21930.0 1.999865
21940.0 1.999972
21950.0 2.000599
21960.0 2.000464
21970.0 2.000272
21980.0 2.000086
21990.0 1.999884
22000.0 1.999924
22010.0 1.999364
22020.0 1.999005
22030.0 1.998452
22040.0 1.998418
22050.0 1.998014
22060.0 1.997414
22070.0 1.997070
22080.0 1.997775
22090.0 1.996994
22100.0 1.997022
22110.0 1.997025
22120.0 1.996783
22130.0 1.996093
22140.0 1.996016
22150.0 1.995601
22160.0 1.995435
22170.0 1.996566
22180.0 1.997318
22190.0 1.996822
22200.0 1.996243
22210.0 1.995925
22220.0 1.996012
22230.0 1.996488
22240.0 1.995988
22250.0 1.995369
22260.0 1.994990
22270.0 1.994822
22280.0 1.994518
22290.0 1.994460
22300.0 1.995149
22310.0 1.995850
22320.0 1.995818
22330.0 1.995818
22340.0 1.995612
22350.0 1.996061
22360.0 1.999837
22370.0 1.999517
22380.0 1.998803
22390.0 1.998027
22400.0 1.998284
22410.0 1.997447
22420.0 1.997174
22430.0 1.996677
22440.0 1.996689
22450.0 1.996815
22460.0 1.998598
22470.0 1.997901
22480.0 1.997122
22490.0 1.997300
22500.0 1.999153
22510.0 1.998528
22520.0 2.000900
22530.0 2.005276
22540.0 2.006578
22550.0 2.006474
22560.0 2.006070
22570.0 2.005973
22580.0 2.005469
22590.0 2.005345
22600.0 2.005274
22610.0 2.004724
22620.0 2.004921
22630.0 2.005559
22640.0 2.005438
22650.0 2.006427
22660.0 2.008283
22670.0 2.008168
22680.0 2.007851
22690.0 2.007859
22700.0 2.008513
22710.0 2.008620
22720.0 2.008159
22730.0 2.007735
22740.0 2.007748
22750.0 2.007548
22760.0 2.007140
22770.0 2.006863
22780.0 2.006725
22790.0 2.006458
22800.0 2.005780
22810.0 2.005645
22820.0 2.005084
22830.0 2.005250
22840.0 2.005541
22850.0 2.005141
22860.0 2.005061
22870.0 2.004769
22880.0 2.004686
22890.0 2.003918
22900.0 2.003033
22910.0 2.002782
22920.0 2.002328
22930.0 2.002022
22940.0 2.001358
22950.0 2.001758
22960.0 2.004568
22970.0 2.006001
22980.0 2.005938
22990.0 2.006456
23000.0 2.006354
23010.0 2.006529
23020.0 2.006142
23030.0 2.006124
23040.0 2.006366
23050.0 2.006130
23060.0 2.007219
23070.0 2.006908
23080.0 2.006717
23090.0 2.006131
23100.0 2.006217
23110.0 2.006046
23120.0 2.005803
23130.0 2.005772
23140.0 2.005812
23150.0 2.005654
23160.0 2.005539
23170.0 2.005742
23180.0 2.005321
23190.0 2.006142
23200.0 2.005975
23210.0 2.005801
23220.0 2.005556
23230.0 2.004894
23240.0 2.004984
23250.0 2.004842
23260.0 2.004244
23270.0 2.003876
23280.0 2.003463
23290.0 2.003068
23300.0 2.002647
23310.0 2.001939
23320.0 2.000902
23330.0 2.000934
23340.0 2.000546
23350.0 2.000328
23360.0 2.000332
23370.0 1.999692
23380.0 2.000581
23390.0 2.002122
23400.0 2.001726
23410.0 2.001426
23420.0 2.001309
23430.0 2.001256
23440.0 2.003005
23450.0 2.002702
23460.0 2.002373
23470.0 2.002112
23480.0 2.001792
23490.0 2.001755
23500.0 2.001450
23510.0 2.001559
23520.0 2.001592
23530.0 2.001108
23540.0 2.001313
23550.0 2.000824
23560.0 2.000573
23570.0 2.000206
23580.0 1.999342
23590.0 1.999678
23600.0 2.000297
23610.0 2.000461
23620.0 2.000090
23630.0 2.000615
23640.0 2.000758
23650.0 2.000685
23660.0 2.000605
23670.0 2.000434
23680.0 2.001169
23690.0 2.001702
23700.0 2.001371
23710.0 2.000932
23720.0 2.000565
23730.0 1.999968
23740.0 1.999832
23750.0 1.999053
23760.0 1.999242
23770.0 1.999261
23780.0 1.998886
23790.0 1.997939
23800.0 1.997399
23810.0 1.997139
23820.0 1.996505
23830.0 1.996332
23840.0 1.995713
23850.0 1.996702
23860.0 1.996574
23870.0 1.996299
23880.0 1.996391
23890.0 1.996299
23900.0 1.995988
23910.0 1.995791
23920.0 1.995681
23930.0 1.995322
23940.0 1.994747
23950.0 1.994328
23960.0 1.993966
23970.0 1.993827
23980.0 1.993318
23990.0 1.992775
24000.0 1.992440
24010.0 1.992061
24020.0 1.991960
24030.0 1.991520
24040.0 1.991161
24050.0 1.991170
24060.0 1.990475
24070.0 1.993617
24080.0 1.993995
24090.0 1.994357
24100.0 1.994006
24110.0 1.993534
24120.0 1.993471
24130.0 1.993206
24140.0 1.992564
24150.0 1.992559
24160.0 1.992477
24170.0 1.992654
24180.0 1.992122
24190.0 1.991995
24200.0 1.992127
24210.0 1.991784
24220.0 1.991013
24230.0 1.991005
24240.0 1.990628
24250.0 1.990696
24260.0 1.990465
24270.0 1.990574
24280.0 1.989320
24290.0 1.989709
24300.0 1.989507
24310.0 1.989224
24320.0 1.989024
24330.0 1.989254
24340.0 1.990470
24350.0 1.990564
24360.0 1.990129
24370.0 1.989883
24380.0 1.989470
24390.0 1.989355
24400.0 1.989169
24410.0 1.989154
24420.0 1.989315
24430.0 1.989472
24440.0 1.989542
24450.0 1.989435
24460.0 1.989224
24470.0 1.988786
24480.0 1.988218
24490.0 1.988274
24500.0 1.988231
24510.0 1.988192
24520.0 1.988488
24530.0 1.988171
24540.0 1.988809
24550.0 1.989384
24560.0 1.988837
24570.0 1.988276
24580.0 1.988199
24590.0 1.987942
24600.0 1.987866
24610.0 1.987717
24620.0 1.990443
24630.0 1.994443
24640.0 1.994315
24650.0 1.994094
24660.0 1.993734
24670.0 1.993374
24680.0 1.992971
24690.0 1.992974
24700.0 1.993032
24710.0 1.992346
24720.0 1.991725
24730.0 1.991277
24740.0 1.991169
24750.0 1.990511
24760.0 1.991267
24770.0 1.991510
24780.0 1.991400
24790.0 1.991891
24800.0 1.991415
24810.0 1.991302
24820.0 1.991260
24830.0 1.992753
24840.0 1.995400
24850.0 1.995308
24860.0 1.994677
24870.0 1.994301
24880.0 1.994026
24890.0 1.994393
24900.0 1.994240
24910.0 1.993999
24920.0 1.993656
24930.0 1.992878
24940.0 1.992364
24950.0 1.991964
24960.0 1.991861
24970.0 1.991679
24980.0 1.991306
24990.0 1.991240
25000.0 1.991122
25010.0 1.990730
25020.0 1.990044
25030.0 1.989529
25040.0 1.989137
25050.0 1.989097
25060.0 1.988563
25070.0 1.988293
25080.0 1.987824
25090.0 1.987180
25100.0 1.987205
25110.0 1.986869
25120.0 1.986516
25130.0 1.986151
25140.0 1.986017
25150.0 1.985779
25160.0 1.986169
25170.0 1.987041
25180.0 1.986907
25190.0 1.986441
25200.0 1.986627
25210.0 1.986267
25220.0 1.985707
25230.0 1.986191
25240.0 1.985924
25250.0 1.985738
25260.0 1.984878
25270.0 1.984278
25280.0 1.984305
25290.0 1.984750
25300.0 1.984267
25310.0 1.983806
25320.0 1.983743
25330.0 1.983464
25340.0 1.983176
25350.0 1.983154
25360.0 1.982706
25370.0 1.982430
25380.0 1.982076
25390.0 1.981925
25400.0 1.981712
25410.0 1.981383
25420.0 1.981389
25430.0 1.980808
25440.0 1.980273
25450.0 1.979485
25460.0 1.978868
25470.0 1.978519
25480.0 1.977758
25490.0 1.977488
25500.0 1.976813
25510.0 1.976747
25520.0 1.977012
25530.0 1.976506
25540.0 1.976089
25550.0 1.975729
25560.0 1.975613
25570.0 1.975806
25580.0 1.975755
25590.0 1.975134
25600.0 1.975034
25610.0 1.975230
25620.0 1.974878
25630.0 1.974595
25640.0 1.974400
25650.0 1.974213
25660.0 1.973970
25670.0 1.973939
25680.0 1.973558
25690.0 1.973663
25700.0 1.973228
25710.0 1.973600
25720.0 1.973515
25730.0 1.973240
25740.0 1.973305
25750.0 1.974549
25760.0 1.975823
25770.0 1.975416
25780.0 1.974941
25790.0 1.974926
25800.0 1.974633
25810.0 1.974262
25820.0 1.974152
25830.0 1.974117
25840.0 1.973962
25850.0 1.973692
25860.0 1.972987
25870.0 1.972560
25880.0 1.972517
25890.0 1.972463
25900.0 1.971855
25910.0 1.971712
25920.0 1.972098
25930.0 1.971844
25940.0 1.971530
25950.0 1.971237
25960.0 1.970900
25970.0 1.970402
25980.0 1.971232
25990.0 1.971250
26000.0 1.970764
26010.0 1.970545
26020.0 1.970624
26030.0 1.971210
26040.0 1.971491
26050.0 1.971440
26060.0 1.971025
26070.0 1.970749
26080.0 1.970255
26090.0 1.969939
26100.0 1.969850
26110.0 1.969463
26120.0 1.968659
26130.0 1.968917
26140.0 1.970899
26150.0 1.970682
26160.0 1.970604
26170.0 1.970108
26180.0 1.970769
26190.0 1.970647
26200.0 1.970484
26210.0 1.970314
26220.0 1.969912
26230.0 1.969882
26240.0 1.969359
26250.0 1.969198
26260.0 1.968694
26270.0 1.969640
26280.0 1.969759
26290.0 1.969640
26300.0 1.969573
26310.0 1.968903
26320.0 1.968724
26330.0 1.968040
26340.0 1.967885
26350.0 1.967558
26360.0 1.967220
26370.0 1.966999
26380.0 1.966463
26390.0 1.966372
26400.0 1.967264
26410.0 1.967472
26420.0 1.966708
26430.0 1.967038
26440.0 1.966422
26450.0 1.966294
26460.0 1.966799
26470.0 1.966833
26480.0 1.966937
26490.0 1.966787
26500.0 1.966812
26510.0 1.966625
26520.0 1.967921
26530.0 1.969178
26540.0 1.969239
26550.0 1.969027
26560.0 1.968726
26570.0 1.968348
26580.0 1.968159
26590.0 1.968283
26600.0 1.968537
26610.0 1.968250
26620.0 1.968704
26630.0 1.968530
26640.0 1.968415
26650.0 1.968301
26660.0 1.967820
26670.0 1.967318
26680.0 1.967050
26690.0 1.968093
26700.0 1.968177
26710.0 1.968657
26720.0 1.968340
26730.0 1.968296
26740.0 1.968177
26750.0 1.968251
26760.0 1.968077
26770.0 1.968077
26780.0 1.967746
26790.0 1.967267
26800.0 1.966963
26810.0 1.966922
26820.0 1.966991
26830.0 1.968598
26840.0 1.968148
26850.0 1.967794
26860.0 1.967807
26870.0 1.967263
26880.0 1.967274
26890.0 1.967065
26900.0 1.967016
26910.0 1.966032
26920.0 1.965998
26930.0 1.966320
26940.0 1.966683
26950.0 1.966780
26960.0 1.967097
26970.0 1.966940
26980.0 1.966590
26990.0 1.966255
27000.0 1.966062
27010.0 1.965505
27020.0 1.965261
27030.0 1.965419
27040.0 1.965023
27050.0 1.964978
27060.0 1.964459
27070.0 1.965345
27080.0 1.965112
27090.0 1.964850
27100.0 1.965237
27110.0 1.964611
27120.0 1.964495
27130.0 1.964388
27140.0 1.964328
27150.0 1.964501
27160.0 1.964948
27170.0 1.964342
27180.0 1.964190
27190.0 1.963942
27200.0 1.964783
27210.0 1.965120
27220.0 1.965068
27230.0 1.966412
27240.0 1.967340
27250.0 1.967968
27260.0 1.967854
27270.0 1.967779
27280.0 1.967239
27290.0 1.967072
27300.0 1.967821
27310.0 1.967633
27320.0 1.966912
27330.0 1.966546
27340.0 1.966447
27350.0 1.966106
27360.0 1.966236
27370.0 1.965812
27380.0 1.965701
27390.0 1.965973
27400.0 1.965700
27410.0 1.965592
27420.0 1.965422
27430.0 1.965215
27440.0 1.964952
27450.0 1.964601
27460.0 1.964391
27470.0 1.965005
27480.0 1.968323
27490.0 1.968203
27500.0 1.968183
27510.0 1.967817
27520.0 1.967695
27530.0 1.967746
27540.0 1.967609
27550.0 1.967465
27560.0 1.967110
27570.0 1.966547
27580.0 1.966223
27590.0 1.965812
27600.0 1.966139
27610.0 1.966324
27620.0 1.968016
27630.0 1.968022
27640.0 1.967767
27650.0 1.967496
27660.0 1.967064
27670.0 1.967171
27680.0 1.967145
27690.0 1.966629
27700.0 1.966630
27710.0 1.966794
27720.0 1.966404
27730.0 1.966361
27740.0 1.966228
27750.0 1.967399
27760.0 1.968891
27770.0 1.969806
27780.0 1.972235
27790.0 1.973551
27800.0 1.973771
27810.0 1.973358
27820.0 1.973174
27830.0 1.972777
27840.0 1.972606
27850.0 1.972176
27860.0 1.971808
27870.0 1.971292
27880.0 1.971104
27890.0 1.970781
27900.0 1.970610
27910.0 1.970485
27920.0 1.970389
27930.0 1.969792
27940.0 1.970715
27950.0 1.970826
27960.0 1.970496
27970.0 1.970379
27980.0 1.970169
27990.0 1.970622
28000.0 1.972240
28010.0 1.971517
28020.0 1.971625
28030.0 1.972465
28040.0 1.974047
28050.0 1.973770
28060.0 1.973124
28070.0 1.973433
28080.0 1.972769
28090.0 1.972391
28100.0 1.971954
28110.0 1.973065
28120.0 1.974268
28130.0 1.974521
28140.0 1.974340
28150.0 1.974273
28160.0 1.974047
28170.0 1.973765
28180.0 1.972951
28190.0 1.972877
28200.0 1.972780
28210.0 1.972520
28220.0 1.972095
28230.0 1.971829
28240.0 1.971465
28250.0 1.971240
28260.0 1.972038
28270.0 1.971609
28280.0 1.971618
28290.0 1.973841
28300.0 1.975628
28310.0 1.975425
28320.0 1.975590
28330.0 1.976066
28340.0 1.976698
28350.0 1.977834
28360.0 1.977714
28370.0 1.978042
28380.0 1.977929
28390.0 1.979523
28400.0 1.979497
28410.0 1.979061
28420.0 1.978688
28430.0 1.979009
28440.0 1.978850
28450.0 1.978788
28460.0 1.978396
28470.0 1.978369
28480.0 1.978143
28490.0 1.977519
28500.0 1.977600
28510.0 1.977639
28520.0 1.976937
28530.0 1.976637
28540.0 1.976489
28550.0 1.976059
28560.0 1.976147
28570.0 1.976327
28580.0 1.977010
28590.0 1.977126
28600.0 1.976735
28610.0 1.976480
28620.0 1.976253
28630.0 1.975846
28640.0 1.977160
28650.0 1.977303
28660.0 1.977276
28670.0 1.976992
28680.0 1.976900
28690.0 1.976623
28700.0 1.976540
28710.0 1.976601
28720.0 1.976332
28730.0 1.975989
28740.0 1.975945
28750.0 1.975483
28760.0 1.974729
28770.0 1.974651
28780.0 1.974688
28790.0 1.974532
28800.0 1.974339
28810.0 1.973983
28820.0 1.973804
28830.0 1.973938
28840.0 1.973539
28850.0 1.974459
28860.0 1.974310
28870.0 1.974047
28880.0 1.973441
28890.0 1.973240
28900.0 1.973525
28910.0 1.973039
28920.0 1.973576
28930.0 1.973895
28940.0 1.973925
28950.0 1.974213
28960.0 1.973926
28970.0 1.973471
28980.0 1.973281
28990.0 1.973207
29000.0 1.972724
29010.0 1.972671
29020.0 1.973352
29030.0 1.972730
29040.0 1.972574
29050.0 1.972301
29060.0 1.972163
29070.0 1.971775
29080.0 1.971497
29090.0 1.972045
29100.0 1.973191
29110.0 1.973093
29120.0 1.972521
29130.0 1.972646
29140.0 1.972745
29150.0 1.972263
29160.0 1.972644
29170.0 1.973829
29180.0 1.973461
29190.0 1.973675
29200.0 1.973341
29210.0 1.973274
29220.0 1.972786
29230.0 1.972761
29240.0 1.972569
29250.0 1.972090
29260.0 1.971656
29270.0 1.971653
29280.0 1.971707
29290.0 1.971491
29300.0 1.971459
29310.0 1.971776
29320.0 1.971663
29330.0 1.971621
29340.0 1.971332
29350.0 1.971085
29360.0 1.970771
29370.0 1.970474
29380.0 1.970403
29390.0 1.970309
29400.0 1.970605
29410.0 1.970546
29420.0 1.970459
29430.0 1.970008
29440.0 1.969764
29450.0 1.970354
29460.0 1.970592
29470.0 1.970143
29480.0 1.970118
29490.0 1.973147
29500.0 1.973647
29510.0 1.973485
29520.0 1.973155
29530.0 1.972925
29540.0 1.973559
29550.0 1.973324
29560.0 1.972722
29570.0 1.972675
29580.0 1.972816
29590.0 1.973779
29600.0 1.973998
29610.0 1.973961
29620.0 1.974474
29630.0 1.974511
29640.0 1.974286
29650.0 1.973828
29660.0 1.973552
29670.0 1.973491
29680.0 1.973582
29690.0 1.973703
29700.0 1.973659
29710.0 1.973524
29720.0 1.973439
29730.0 1.973239
29740.0 1.972970
29750.0 1.972553
29760.0 1.974383
29770.0 1.976142
29780.0 1.976376
29790.0 1.976250
29800.0 1.976082
29810.0 1.975641
29820.0 1.975480
29830.0 1.975363
29840.0 1.975496
29850.0 1.975370
29860.0 1.975626
29870.0 1.976355
29880.0 1.976240
29890.0 1.976062
29900.0 1.976299
29910.0 1.975955
29920.0 1.976344
29930.0 1.975821
29940.0 1.976400
29950.0 1.977410
29960.0 1.977321
29970.0 1.976756
29980.0 1.976710
29990.0 1.976942
30000.0 1.977445
30010.0 1.977208
30020.0 1.976965
30030.0 1.976634
30040.0 1.976512
30050.0 1.976396
30060.0 1.976185
30070.0 1.976054
30080.0 1.975930
30090.0 1.975710
30100.0 1.975254
30110.0 1.975086
30120.0 1.974999
30130.0 1.974807
30140.0 1.974433
30150.0 1.974483
30160.0 1.974046
30170.0 1.973757
30180.0 1.974319
30190.0 1.974280
30200.0 1.974431
30210.0 1.974442
30220.0 1.974395
30230.0 1.974222
30240.0 1.974025
30250.0 1.973866
30260.0 1.973800
30270.0 1.973543
30280.0 1.973033
30290.0 1.972961
30300.0 1.972367
30310.0 1.974518
30320.0 1.976843
30330.0 1.976403
30340.0 1.976547
30350.0 1.976521
30360.0 1.976464
30370.0 1.976256
30380.0 1.976100
30390.0 1.975410
30400.0 1.975329
30410.0 1.975034
30420.0 1.974872
30430.0 1.974994
30440.0 1.974708
30450.0 1.974629
30460.0 1.974238
30470.0 1.973689
30480.0 1.973199
30490.0 1.973446
30500.0 1.972587
30510.0 1.973340
30520.0 1.973265
30530.0 1.973034
30540.0 1.972955
30550.0 1.972813
30560.0 1.972805
30570.0 1.972159
30580.0 1.972055
30590.0 1.971762
30600.0 1.971081
30610.0 1.972111
30620.0 1.972291
30630.0 1.972251
30640.0 1.972504
30650.0 1.973457
30660.0 1.973124
30670.0 1.972901
30680.0 1.972295
30690.0 1.972041
30700.0 1.971983
30710.0 1.971829
30720.0 1.971851
30730.0 1.971859
30740.0 1.971300
30750.0 1.970905
30760.0 1.971086
30770.0 1.971144
30780.0 1.970708
30790.0 1.970311
30800.0 1.969764
30810.0 1.969544
30820.0 1.970116
30830.0 1.969588
30840.0 1.969123
30850.0 1.969187
30860.0 1.969610
30870.0 1.970293
30880.0 1.972475
30890.0 1.973190
30900.0 1.976126
30910.0 1.978393
30920.0 1.979095
30930.0 1.979190
30940.0 1.979049
30950.0 1.979046
30960.0 1.980638
30970.0 1.980619
30980.0 1.980583
30990.0 1.980472
31000.0 1.980607
31010.0 1.980876
31020.0 1.980804
31030.0 1.980709
31040.0 1.980293
31050.0 1.980001
31060.0 1.979538
31070.0 1.979411
31080.0 1.979312
31090.0 1.978938
31100.0 1.978488
31110.0 1.978630
31120.0 1.978371
31130.0 1.979010
31140.0 1.978985
31150.0 1.978740
31160.0 1.978433
31170.0 1.977861
31180.0 1.977800
31190.0 1.977392
31200.0 1.977061
31210.0 1.977633
31220.0 1.977653
31230.0 1.977381
31240.0 1.977026
31250.0 1.976940
31260.0 1.976861
31270.0 1.976487
31280.0 1.975800
31290.0 1.975653
31300.0 1.975878
31310.0 1.976106
31320.0 1.975873
31330.0 1.975426
31340.0 1.975947
31350.0 1.975884
31360.0 1.975748
31370.0 1.975600
31380.0 1.975683
31390.0 1.977493
31400.0 1.977247
31410.0 1.976661
31420.0 1.976365
31430.0 1.976887
31440.0 1.978681
31450.0 1.981252
31460.0 1.982319
31470.0 1.981436
31480.0 1.980916
31490.0 1.980433
31500.0 1.980333
31510.0 1.980114
31520.0 1.980166
31530.0 1.980382
31540.0 1.979709
31550.0 1.979648
31560.0 1.979219
31570.0 1.979281
31580.0 1.979125
31590.0 1.978475
31600.0 1.978446
31610.0 1.978192
31620.0 1.978100
31630.0 1.977661
31640.0 1.977767
31650.0 1.977683
31660.0 1.977926
31670.0 1.977816
31680.0 1.978579
31690.0 1.978298
31700.0 1.977941
31710.0 1.979099
31720.0 1.980975
31730.0 1.980716
31740.0 1.980856
31750.0 1.981361
31760.0 1.980756
31770.0 1.980332
31780.0 1.979972
31790.0 1.979503
31800.0 1.980221
31810.0 1.979779
31820.0 1.979445
31830.0 1.979387
31840.0 1.979129
31850.0 1.979056
31860.0 1.978757
31870.0 1.978744
31880.0 1.978557
31890.0 1.978520
31900.0 1.977784
31910.0 1.977904
31920.0 1.977395
31930.0 1.977023
31940.0 1.977390
31950.0 1.976850
31960.0 1.976882
31970.0 1.976869
31980.0 1.976883
31990.0 1.976925
32000.0 1.976557
32010.0 1.976571
32020.0 1.977213
32030.0 1.976953
32040.0 1.977618
32050.0 1.977512
32060.0 1.977624
32070.0 1.977600
32080.0 1.977186
32090.0 1.977200
32100.0 1.976909
32110.0 1.976524
32120.0 1.976326
32130.0 1.976273
32140.0 1.976322
32150.0 1.976000
32160.0 1.975662
32170.0 1.975371
32180.0 1.975223
32190.0 1.974950
32200.0 1.977005
32210.0 1.979604
32220.0 1.981149
32230.0 1.982401
32240.0 1.982574
32250.0 1.982342
32260.0 1.981883
32270.0 1.981645
32280.0 1.981510
32290.0 1.981318
32300.0 1.981073
32310.0 1.981238
32320.0 1.981272
32330.0 1.981012
32340.0 1.980950
32350.0 1.980810
32360.0 1.981336
32370.0 1.980873
32380.0 1.980639
32390.0 1.980439
32400.0 1.980975
32410.0 1.981003
32420.0 1.980751
32430.0 1.980596
32440.0 1.980271
32450.0 1.980545
32460.0 1.980630
32470.0 1.980341
32480.0 1.980384
32490.0 1.980469
32500.0 1.979875
32510.0 1.979984
32520.0 1.979926
32530.0 1.980368
32540.0 1.980503
32550.0 1.980230
32560.0 1.979912
32570.0 1.979786
32580.0 1.979366
32590.0 1.979152
32600.0 1.978972
32610.0 1.979938
32620.0 1.979854
32630.0 1.979399
32640.0 1.979284
32650.0 1.979556
32660.0 1.979142
32670.0 1.979236
32680.0 1.979549
32690.0 1.979409
32700.0 1.980727
32710.0 1.982124
32720.0 1.982028
32730.0 1.981671
32740.0 1.981799
32750.0 1.981749
32760.0 1.981530
32770.0 1.980982
32780.0 1.980755
32790.0 1.981050
32800.0 1.980800
32810.0 1.980756
32820.0 1.980546
32830.0 1.982042
32840.0 1.982119
32850.0 1.982121
32860.0 1.981714
32870.0 1.981420
32880.0 1.981122
32890.0 1.980987
32900.0 1.980792
32910.0 1.980598
32920.0 1.980448
32930.0 1.980626
32940.0 1.980481
32950.0 1.980414
32960.0 1.979965
32970.0 1.979741
32980.0 1.980046
32990.0 1.980073
33000.0 1.980038
33010.0 1.979721
33020.0 1.979873
33030.0 1.979541
33040.0 1.979733
33050.0 1.979637
33060.0 1.979181
33070.0 1.979622
33080.0 1.981790
33090.0 1.981287
33100.0 1.981191
33110.0 1.981039
33120.0 1.980410
33130.0 1.980309
33140.0 1.980230
33150.0 1.980053
33160.0 1.979939
33170.0 1.979457
33180.0 1.979245
33190.0 1.979197
33200.0 1.978898
33210.0 1.978520
33220.0 1.978306
33230.0 1.978124
33240.0 1.977640
33250.0 1.978592
33260.0 1.978513
33270.0 1.977922
33280.0 1.977505
33290.0 1.977496
33300.0 1.977307
33310.0 1.978608
33320.0 1.979897
33330.0 1.981331
33340.0 1.981565
33350.0 1.981377
33360.0 1.980983
33370.0 1.980689
33380.0 1.980479
33390.0 1.980328
33400.0 1.980796
33410.0 1.981133
33420.0 1.981456
33430.0 1.981914
33440.0 1.981851
33450.0 1.981584
33460.0 1.981449
33470.0 1.981178
33480.0 1.981136
33490.0 1.981027
33500.0 1.980471
33510.0 1.980158
33520.0 1.979830
33530.0 1.979925
33540.0 1.979719
33550.0 1.979517
33560.0 1.979345
33570.0 1.979338
33580.0 1.979080
33590.0 1.978873
33600.0 1.978242
33610.0 1.979697
33620.0 1.982874
33630.0 1.984254
33640.0 1.983928
33650.0 1.983896
33660.0 1.983769
33670.0 1.983501
33680.0 1.982993
33690.0 1.982932
33700.0 1.982608
33710.0 1.982220
33720.0 1.982487
33730.0 1.982348
33740.0 1.982558
33750.0 1.982514
33760.0 1.982457
33770.0 1.982962
33780.0 1.982824
33790.0 1.982835
33800.0 1.982878
33810.0 1.982793
33820.0 1.982581
33830.0 1.981981
33840.0 1.982407
33850.0 1.983077
33860.0 1.982689
33870.0 1.982776
33880.0 1.982570
33890.0 1.982175
33900.0 1.982006
33910.0 1.981792
33920.0 1.980978
33930.0 1.981121
33940.0 1.980877
33950.0 1.980690
33960.0 1.980592
33970.0 1.980602
33980.0 1.980309
33990.0 1.980050
34000.0 1.980176
34010.0 1.979856
34020.0 1.980299
34030.0 1.980414
34040.0 1.980406
34050.0 1.979753
34060.0 1.979419
34070.0 1.979177
34080.0 1.978977
34090.0 1.980608
34100.0 1.981117
34110.0 1.980839
34120.0 1.983560
34130.0 1.985930
34140.0 1.985974
34150.0 1.985633
34160.0 1.985358
34170.0 1.985061
34180.0 1.984718
34190.0 1.984373
34200.0 1.985373
34210.0 1.985725
34220.0 1.985538
34230.0 1.985333
34240.0 1.984958
34250.0 1.984940
34260.0 1.984777
34270.0 1.984443
34280.0 1.984280
34290.0 1.983714
34300.0 1.983142
34310.0 1.983491
34320.0 1.983514
34330.0 1.983619
34340.0 1.983846
34350.0 1.983861
34360.0 1.983714
34370.0 1.983323
34380.0 1.983008
34390.0 1.982804
34400.0 1.982863
34410.0 1.982652
34420.0 1.982132
34430.0 1.982116
34440.0 1.982098
34450.0 1.981883
34460.0 1.981687
34470.0 1.982427
34480.0 1.982074
34490.0 1.982087
34500.0 1.981904
34510.0 1.981802
34520.0 1.981765
34530.0 1.981603
34540.0 1.981393
34550.0 1.981161
34560.0 1.980691
34570.0 1.980398
34580.0 1.980248
34590.0 1.980074
34600.0 1.979498
34610.0 1.979491
34620.0 1.979335
34630.0 1.979178
34640.0 1.978782
34650.0 1.978579
34660.0 1.978183
34670.0 1.977889
34680.0 1.977630
34690.0 1.977336
34700.0 1.977336
34710.0 1.976964
34720.0 1.976946
34730.0 1.977115
34740.0 1.977353
34750.0 1.977398
34760.0 1.977227
34770.0 1.977020
34780.0 1.976976
34790.0 1.976883
34800.0 1.976321
34810.0 1.976458
34820.0 1.976659
34830.0 1.976627
34840.0 1.976449
34850.0 1.976324
34860.0 1.976198
34870.0 1.976307
34880.0 1.976263
34890.0 1.976121
34900.0 1.975419
34910.0 1.976194
34920.0 1.976569
34930.0 1.976433
34940.0 1.976141
34950.0 1.975758
34960.0 1.975264
34970.0 1.975153
34980.0 1.974782
34990.0 1.974684
35000.0 1.974626
35010.0 1.974239
35020.0 1.973979
35030.0 1.973655
35040.0 1.973510
35050.0 1.973269
35060.0 1.973182
35070.0 1.972854
35080.0 1.972919
35090.0 1.973503
35100.0 1.973380
35110.0 1.973274
35120.0 1.973335
35130.0 1.973063
35140.0 1.973305
35150.0 1.973095
35160.0 1.973037
35170.0 1.972669
35180.0 1.972254
35190.0 1.972170
35200.0 1.972118
35210.0 1.972703
35220.0 1.972327
35230.0 1.972282
35240.0 1.972097
35250.0 1.971946
35260.0 1.971712
35270.0 1.971477
35280.0 1.971422
35290.0 1.971672
35300.0 1.972610
35310.0 1.974569
35320.0 1.974260
35330.0 1.974020
35340.0 1.974045
35350.0 1.973940
35360.0 1.973414
35370.0 1.976638
35380.0 1.977376
35390.0 1.977404
35400.0 1.977253
35410.0 1.977172
35420.0 1.976795
35430.0 1.976781
35440.0 1.976705
35450.0 1.976480
35460.0 1.976530
35470.0 1.976436
35480.0 1.976483
35490.0 1.976065
35500.0 1.976270
35510.0 1.976260
35520.0 1.976139
35530.0 1.975912
35540.0 1.975605
35550.0 1.975338
35560.0 1.975143
35570.0 1.975046
35580.0 1.974775
35590.0 1.974278
35600.0 1.973901
35610.0 1.973762
35620.0 1.973574
35630.0 1.973588
35640.0 1.973353
35650.0 1.972924
35660.0 1.973021
35670.0 1.972863
35680.0 1.972163
35690.0 1.973333
35700.0 1.973167
35710.0 1.972795
35720.0 1.972498
35730.0 1.972526
35740.0 1.972107
35750.0 1.971811
35760.0 1.971533
35770.0 1.971345
35780.0 1.972128
35790.0 1.971650
35800.0 1.971675
35810.0 1.972145
35820.0 1.972037
35830.0 1.971693
35840.0 1.971241
35850.0 1.971150
35860.0 1.971408
35870.0 1.971110
35880.0 1.970990
35890.0 1.971076
35900.0 1.971834
35910.0 1.972370
35920.0 1.972287
35930.0 1.971855
35940.0 1.971614
35950.0 1.971466
35960.0 1.971470
35970.0 1.971188
35980.0 1.970830
35990.0 1.970895
36000.0 1.970628
36010.0 1.970169
36020.0 1.970648
36030.0 1.971058
36040.0 1.972681
36050.0 1.972430
36060.0 1.972296
36070.0 1.972373
36080.0 1.972155
36090.0 1.971978
36100.0 1.971638
36110.0 1.971481
36120.0 1.971639
36130.0 1.972654
36140.0 1.972538
36150.0 1.972408
36160.0 1.972177
36170.0 1.972001
36180.0 1.971906
36190.0 1.972104
36200.0 1.971958
36210.0 1.971752
36220.0 1.971564
36230.0 1.971537
36240.0 1.970931
36250.0 1.971031
36260.0 1.970872
36270.0 1.970244
36280.0 1.970638
36290.0 1.970446
36300.0 1.970396
36310.0 1.971652
36320.0 1.971001
36330.0 1.971837
36340.0 1.971598
36350.0 1.971628
36360.0 1.971217
36370.0 1.971475
36380.0 1.971267
36390.0 1.971203
36400.0 1.972870
36410.0 1.972871
36420.0 1.972718
36430.0 1.972883
36440.0 1.972906
36450.0 1.972800
36460.0 1.972410
36470.0 1.972341
36480.0 1.972051
36490.0 1.974191
36500.0 1.976141
36510.0 1.976213
36520.0 1.976034
36530.0 1.976061
36540.0 1.976012
36550.0 1.975929
36560.0 1.976028
36570.0 1.975941
36580.0 1.976133
36590.0 1.975864
36600.0 1.975310
36610.0 1.974983
36620.0 1.974709
36630.0 1.974636
36640.0 1.974572
36650.0 1.974377
36660.0 1.974132
36670.0 1.974002
36680.0 1.973639
36690.0 1.973377
36700.0 1.972979
36710.0 1.973277
36720.0 1.973075
36730.0 1.972718
36740.0 1.972467
36750.0 1.972447
36760.0 1.972125
36770.0 1.972173
36780.0 1.972096
36790.0 1.971739
36800.0 1.971395
36810.0 1.971260
36820.0 1.971435
36830.0 1.971541
36840.0 1.971261
36850.0 1.970775
36860.0 1.970713
36870.0 1.970453
36880.0 1.971374
36890.0 1.971547
36900.0 1.971369
36910.0 1.971101
36920.0 1.972804
36930.0 1.976855
36940.0 1.979663
36950.0 1.981322
36960.0 1.980990
36970.0 1.980845
36980.0 1.980285
36990.0 1.980388
37000.0 1.980207
37010.0 1.980045
37020.0 1.979951
37030.0 1.980067
37040.0 1.979735
37050.0 1.979685
37060.0 1.979605
37070.0 1.979436
37080.0 1.980228
37090.0 1.980792
37100.0 1.981325
37110.0 1.981182
37120.0 1.980816
37130.0 1.980980
37140.0 1.980872
37150.0 1.980817
37160.0 1.980528
37170.0 1.980354
37180.0 1.979898
37190.0 1.979648
37200.0 1.979275
37210.0 1.979085
37220.0 1.978953
37230.0 1.978822
37240.0 1.978590
37250.0 1.978559
37260.0 1.979679
37270.0 1.980053
37280.0 1.979967
37290.0 1.979541
37300.0 1.979518
37310.0 1.979778
37320.0 1.979822
37330.0 1.979933
37340.0 1.979860
37350.0 1.979720
37360.0 1.979700
37370.0 1.979694
37380.0 1.979820
37390.0 1.979579
37400.0 1.978843
37410.0 1.979096
37420.0 1.979807
37430.0 1.979659
37440.0 1.979659
37450.0 1.979522
37460.0 1.979130
37470.0 1.978757
37480.0 1.980340
37490.0 1.980068
37500.0 1.979716
37510.0 1.980361
37520.0 1.980151
37530.0 1.980107
37540.0 1.979682
37550.0 1.979832
37560.0 1.979792
37570.0 1.980523
37580.0 1.980987
37590.0 1.980804
37600.0 1.980300
37610.0 1.980624
37620.0 1.981061
37630.0 1.981324
37640.0 1.981130
37650.0 1.980839
37660.0 1.980802
37670.0 1.980951
37680.0 1.981042
37690.0 1.980833
37700.0 1.980593
37710.0 1.980250
37720.0 1.980023
37730.0 1.979728
37740.0 1.979605
37750.0 1.979343
37760.0 1.979035
37770.0 1.978909
37780.0 1.978647
37790.0 1.978709
37800.0 1.978605
37810.0 1.978198
37820.0 1.977961
37830.0 1.977731
37840.0 1.977693
37850.0 1.977364
37860.0 1.976954
37870.0 1.976637
37880.0 1.976820
37890.0 1.976380
37900.0 1.977304
37910.0 1.977483
37920.0 1.977142
37930.0 1.977157
37940.0 1.976868
37950.0 1.976621
37960.0 1.977352
37970.0 1.978640
37980.0 1.978402
37990.0 1.978649
38000.0 1.979105
38010.0 1.978751
38020.0 1.979017
38030.0 1.978745
38040.0 1.978396
38050.0 1.978294
38060.0 1.977628
38070.0 1.977691
38080.0 1.977346
38090.0 1.977323
38100.0 1.977579
38110.0 1.977610
38120.0 1.977280
38130.0 1.977188
38140.0 1.977012
38150.0 1.976595
38160.0 1.976402
38170.0 1.976315
38180.0 1.976149
38190.0 1.975959
38200.0 1.976002
38210.0 1.976172
38220.0 1.977411
38230.0 1.977795
38240.0 1.978744
38250.0 1.978503
38260.0 1.978502
38270.0 1.978682
38280.0 1.978518
38290.0 1.978220
38300.0 1.977992
38310.0 1.978502
38320.0 1.978987
38330.0 1.978710
38340.0 1.978600
38350.0 1.978431
38360.0 1.978045
38370.0 1.977853
38380.0 1.977706
38390.0 1.977426
38400.0 1.977287
38410.0 1.976853
38420.0 1.976824
38430.0 1.976583
38440.0 1.976032
38450.0 1.975950
38460.0 1.975874
38470.0 1.975874
38480.0 1.978520
38490.0 1.980277
38500.0 1.980147
38510.0 1.980140
38520.0 1.980338
38530.0 1.980839
38540.0 1.981283
38550.0 1.981195
38560.0 1.980869
38570.0 1.981361
38580.0 1.981298
38590.0 1.981169
38600.0 1.981188
38610.0 1.980558
38620.0 1.980534
38630.0 1.980456
38640.0 1.980212
38650.0 1.979978
38660.0 1.979743
38670.0 1.979422
38680.0 1.979641
38690.0 1.979163
38700.0 1.979655
38710.0 1.979539
38720.0 1.979317
38730.0 1.979100
38740.0 1.979099
38750.0 1.978959
38760.0 1.978813
38770.0 1.978476
38780.0 1.978178
38790.0 1.978071
38800.0 1.977950
38810.0 1.977861
38820.0 1.977552
38830.0 1.977452
38840.0 1.977286
38850.0 1.977133
38860.0 1.976900
38870.0 1.976620
38880.0 1.976312
38890.0 1.975992
38900.0 1.975587
38910.0 1.975487
38920.0 1.975100
38930.0 1.974921
38940.0 1.974472
38950.0 1.974547
38960.0 1.974417
38970.0 1.975011
38980.0 1.974917
38990.0 1.974710
39000.0 1.974649
39010.0 1.974424
39020.0 1.973929
39030.0 1.973798
39040.0 1.973486
39050.0 1.973431
39060.0 1.973411
39070.0 1.973327
39080.0 1.973009
39090.0 1.973120
39100.0 1.972710
39110.0 1.972675
39120.0 1.972558
39130.0 1.972477
39140.0 1.972494
39150.0 1.972487
39160.0 1.972102
39170.0 1.972000
39180.0 1.971951
39190.0 1.971599
39200.0 1.971698
39210.0 1.971243
39220.0 1.970893
39230.0 1.970750
39240.0 1.970403
39250.0 1.970142
39260.0 1.969766
39270.0 1.969455
39280.0 1.969278
39290.0 1.969270
39300.0 1.968760
39310.0 1.968688
39320.0 1.968651
39330.0 1.968398
39340.0 1.968342
39350.0 1.967943
39360.0 1.967654
39370.0 1.967543
39380.0 1.967357
39390.0 1.967184
39400.0 1.966976
39410.0 1.967239
39420.0 1.967116
39430.0 1.966896
39440.0 1.966849
39450.0 1.967867
39460.0 1.967570
39470.0 1.967588
39480.0 1.967370
39490.0 1.967642
39500.0 1.967462
39510.0 1.967331
39520.0 1.967806
39530.0 1.967828
39540.0 1.967765
39550.0 1.967713
39560.0 1.967557
39570.0 1.967291
39580.0 1.967843
39590.0 1.967829
39600.0 1.967519
39610.0 1.968016
39620.0 1.967676
39630.0 1.967702
39640.0 1.967983
39650.0 1.969143
39660.0 1.968864
39670.0 1.968701
39680.0 1.968673
39690.0 1.968324
39700.0 1.968344
39710.0 1.968247
39720.0 1.968451
39730.0 1.968787
39740.0 1.968598
39750.0 1.968541
39760.0 1.968277
39770.0 1.968264
39780.0 1.968209
39790.0 1.969004
39800.0 1.970784
39810.0 1.971051
39820.0 1.970813
39830.0 1.970760
39840.0 1.970663
39850.0 1.970326
39860.0 1.970571
39870.0 1.970623
39880.0 1.971006
39890.0 1.971419
39900.0 1.971092
39910.0 1.970959
39920.0 1.970976
39930.0 1.971268
39940.0 1.972763
39950.0 1.972780
39960.0 1.972759
39970.0 1.972256
39980.0 1.973715
39990.0 1.973254
40000.0 1.973379
40010.0 1.973192
40020.0 1.972973
40030.0 1.973554
40040.0 1.974099
40050.0 1.973836
40060.0 1.973746
40070.0 1.973658
40080.0 1.973498
40090.0 1.973288
40100.0 1.973183
40110.0 1.972934
40120.0 1.972734
40130.0 1.973157
40140.0 1.973287
40150.0 1.974426
40160.0 1.976063
40170.0 1.975917
40180.0 1.975917
40190.0 1.975791
40200.0 1.975699
40210.0 1.975891
40220.0 1.975555
40230.0 1.975323
40240.0 1.975405
40250.0 1.975130
40260.0 1.974632
40270.0 1.974392
40280.0 1.974213
40290.0 1.974860
40300.0 1.974882
40310.0 1.974927
40320.0 1.975857
40330.0 1.977478
40340.0 1.977873
40350.0 1.977988
40360.0 1.978059
40370.0 1.978205
40380.0 1.977958
40390.0 1.977837
40400.0 1.977763
40410.0 1.977618
40420.0 1.978366
40430.0 1.978294
40440.0 1.978005
40450.0 1.978068
40460.0 1.978076
40470.0 1.978116
40480.0 1.977912
40490.0 1.977736
40500.0 1.977465
40510.0 1.977309
40520.0 1.977456
40530.0 1.977141
40540.0 1.976984
40550.0 1.976499
40560.0 1.976602
40570.0 1.977185
40580.0 1.976954
40590.0 1.976800
40600.0 1.976726
40610.0 1.976641
40620.0 1.976529
40630.0 1.976490
40640.0 1.976482
40650.0 1.976331
40660.0 1.976331
40670.0 1.976189
40680.0 1.975844
40690.0 1.975663
40700.0 1.975544
40710.0 1.975370
40720.0 1.975228
40730.0 1.974866
40740.0 1.974578
40750.0 1.974355
40760.0 1.974081
40770.0 1.974035
40780.0 1.973958
40790.0 1.973630
40800.0 1.973456
40810.0 1.973261
40820.0 1.973269
40830.0 1.973200
40840.0 1.972910
40850.0 1.973010
40860.0 1.972690
40870.0 1.972535
40880.0 1.972264
40890.0 1.972311
40900.0 1.972243
40910.0 1.973798
40920.0 1.973448
40930.0 1.973335
40940.0 1.974423
40950.0 1.974642
40960.0 1.974738
40970.0 1.974372
40980.0 1.973711
40990.0 1.975199
41000.0 1.975183
41010.0 1.975304
41020.0 1.975528
41030.0 1.975261
41040.0 1.975243
41050.0 1.975067
41060.0 1.974828
41070.0 1.974892
41080.0 1.974696
41090.0 1.974550
41100.0 1.974642
41110.0 1.974739
41120.0 1.974684
41130.0 1.974604
41140.0 1.974892
41150.0 1.974809
41160.0 1.974710
41170.0 1.975140
41180.0 1.975131
41190.0 1.975286
41200.0 1.975318
41210.0 1.975381
41220.0 1.975335
41230.0 1.975191
41240.0 1.974942
41250.0 1.974911
41260.0 1.975289
41270.0 1.975174
41280.0 1.975064
41290.0 1.974965
41300.0 1.974780
41310.0 1.974612
41320.0 1.974232
41330.0 1.974156
41340.0 1.974031
41350.0 1.973821
41360.0 1.975562
41370.0 1.976660
41380.0 1.976534
41390.0 1.976234
41400.0 1.976565
41410.0 1.976414
41420.0 1.976555
41430.0 1.976537
41440.0 1.976432
41450.0 1.976329
41460.0 1.976368
41470.0 1.976224
41480.0 1.975909
41490.0 1.976003
41500.0 1.975665
41510.0 1.975427
41520.0 1.975165
41530.0 1.975494
41540.0 1.975288
41550.0 1.974945
41560.0 1.974916
41570.0 1.974500
41580.0 1.975019
41590.0 1.974784
41600.0 1.974798
41610.0 1.974653
41620.0 1.974477
41630.0 1.974276
41640.0 1.974353
41650.0 1.974643
41660.0 1.975944
41670.0 1.975624
41680.0 1.975714
41690.0 1.976380
41700.0 1.976920
41710.0 1.977340
41720.0 1.977214
41730.0 1.977275
41740.0 1.977091
41750.0 1.976816
41760.0 1.976658
41770.0 1.976572
41780.0 1.976541
41790.0 1.976585
41800.0 1.976176
41810.0 1.976050
41820.0 1.975992
41830.0 1.975651
41840.0 1.975414
41850.0 1.975397
41860.0 1.975367
41870.0 1.975060
41880.0 1.974804
41890.0 1.974233
41900.0 1.974075
41910.0 1.973921
41920.0 1.973790
41930.0 1.974051
41940.0 1.973468
41950.0 1.973243
41960.0 1.973029
41970.0 1.972597
41980.0 1.973397
41990.0 1.973342
42000.0 1.973653
42010.0 1.973503
42020.0 1.973769
42030.0 1.973594
42040.0 1.973457
42050.0 1.973081
42060.0 1.972934
42070.0 1.973612
42080.0 1.973369
42090.0 1.973444
42100.0 1.973582
42110.0 1.974040
42120.0 1.973898
42130.0 1.973610
42140.0 1.973188
42150.0 1.972992
42160.0 1.973129
42170.0 1.973317
42180.0 1.973381
42190.0 1.973431
42200.0 1.973742
42210.0 1.973404
42220.0 1.973193
42230.0 1.973192
42240.0 1.972868
42250.0 1.973092
42260.0 1.972736
42270.0 1.972499
42280.0 1.972237
42290.0 1.972014
42300.0 1.971802
42310.0 1.971470
42320.0 1.971192
42330.0 1.971294
42340.0 1.971130
42350.0 1.971005
42360.0 1.971339
42370.0 1.971276
42380.0 1.971064
42390.0 1.970766
42400.0 1.970515
42410.0 1.970218
42420.0 1.970067
42430.0 1.970092
42440.0 1.969688
42450.0 1.969485
42460.0 1.969105
42470.0 1.968959
42480.0 1.969306
42490.0 1.969546
42500.0 1.970320
42510.0 1.970134
42520.0 1.969658
42530.0 1.969404
42540.0 1.969251
42550.0 1.969011
42560.0 1.968762
42570.0 1.968634
42580.0 1.969035
42590.0 1.968806
42600.0 1.969432
42610.0 1.969144
42620.0 1.968877
42630.0 1.968568
42640.0 1.968364
42650.0 1.968413
42660.0 1.968197
42670.0 1.968279
42680.0 1.968182
42690.0 1.967784
42700.0 1.967686
42710.0 1.967659
42720.0 1.967346
42730.0 1.967276
42740.0 1.966842
42750.0 1.966738
42760.0 1.966622
42770.0 1.966588
42780.0 1.966307
42790.0 1.965839
42800.0 1.965764
42810.0 1.965484
42820.0 1.965296
42830.0 1.964910
42840.0 1.964998
42850.0 1.965106
42860.0 1.964824
42870.0 1.964940
42880.0 1.964693
42890.0 1.964352
42900.0 1.964334
42910.0 1.964388
42920.0 1.964538
42930.0 1.964537
42940.0 1.964269
42950.0 1.963886
42960.0 1.963767
42970.0 1.963696
42980.0 1.964754
42990.0 1.964574
43000.0 1.964784
43010.0 1.964452
43020.0 1.964048
43030.0 1.963913
43040.0 1.963539
43050.0 1.963752
43060.0 1.964953
43070.0 1.964497
43080.0 1.965024
43090.0 1.964983
43100.0 1.965976
43110.0 1.965831
43120.0 1.965481
43130.0 1.965011
43140.0 1.964903
43150.0 1.964802
43160.0 1.964775
43170.0 1.964398
43180.0 1.964141
43190.0 1.964361
43200.0 1.964276
43210.0 1.964442
43220.0 1.964064
43230.0 1.963971
43240.0 1.963916
43250.0 1.964457
43260.0 1.964164
43270.0 1.964133
43280.0 1.964008
43290.0 1.963953
43300.0 1.963861
43310.0 1.963928
43320.0 1.963759
43330.0 1.963825
43340.0 1.964391
43350.0 1.964323
43360.0 1.964066
43370.0 1.963871
43380.0 1.963583
43390.0 1.963882
43400.0 1.963875
43410.0 1.964097
43420.0 1.964384
43430.0 1.964495
43440.0 1.964419
43450.0 1.964272
43460.0 1.964566
43470.0 1.964592
43480.0 1.964600
43490.0 1.964229
43500.0 1.964013
43510.0 1.963778
43520.0 1.963528
43530.0 1.963167
43540.0 1.963420
43550.0 1.963303
43560.0 1.962930
43570.0 1.962904
43580.0 1.962857
43590.0 1.963062
43600.0 1.962812
43610.0 1.963093
43620.0 1.962769
43630.0 1.962632
43640.0 1.962261
43650.0 1.962282
43660.0 1.962030
43670.0 1.962143
43680.0 1.962066
43690.0 1.961928
43700.0 1.961634
43710.0 1.962221
43720.0 1.962028
43730.0 1.961784
43740.0 1.961657
43750.0 1.961387
43760.0 1.961191
43770.0 1.960911
43780.0 1.961236
43790.0 1.960984
43800.0 1.960848
43810.0 1.960465
43820.0 1.960523
43830.0 1.960319
43840.0 1.959816
43850.0 1.959948
43860.0 1.959890
43870.0 1.959829
43880.0 1.959898
43890.0 1.960222
43900.0 1.961999
43910.0 1.964176
43920.0 1.964507
43930.0 1.966027
43940.0 1.966979
43950.0 1.966734
43960.0 1.966654
43970.0 1.966339
43980.0 1.966109
43990.0 1.965989
44000.0 1.966033
44010.0 1.965876
44020.0 1.965933
44030.0 1.966009
44040.0 1.965862
44050.0 1.965654
44060.0 1.965390
44070.0 1.965540
44080.0 1.965510
44090.0 1.965232
44100.0 1.965875
44110.0 1.966205
44120.0 1.965959
44130.0 1.966109
44140.0 1.966185
44150.0 1.965893
44160.0 1.965863
44170.0 1.965732
44180.0 1.965701
44190.0 1.965509
44200.0 1.965718
44210.0 1.965672
44220.0 1.965441
44230.0 1.965308
44240.0 1.965074
44250.0 1.965285
44260.0 1.965120
44270.0 1.964878
44280.0 1.965186
44290.0 1.965127
44300.0 1.964652
44310.0 1.964254
44320.0 1.965215
44330.0 1.965403
44340.0 1.965610
44350.0 1.965622
44360.0 1.965419
44370.0 1.965266
44380.0 1.965160
44390.0 1.965325
44400.0 1.965115
44410.0 1.964924
44420.0 1.964840
44430.0 1.964759
44440.0 1.964434
44450.0 1.964230
44460.0 1.964134
44470.0 1.964101
44480.0 1.963887
44490.0 1.963674
44500.0 1.963756
44510.0 1.963422
44520.0 1.963256
44530.0 1.963048
44540.0 1.962846
44550.0 1.962381
44560.0 1.962495
44570.0 1.962387
44580.0 1.962331
44590.0 1.962137
44600.0 1.962568
44610.0 1.962948
44620.0 1.963192
44630.0 1.962381
44640.0 1.962327
44650.0 1.962182
44660.0 1.962069
44670.0 1.962146
44680.0 1.962000
44690.0 1.962326
44700.0 1.962037
44710.0 1.961749
44720.0 1.961765
44730.0 1.961466
44740.0 1.962333
44750.0 1.962763
44760.0 1.962503
44770.0 1.962357
44780.0 1.962258
44790.0 1.962040
44800.0 1.962018
44810.0 1.962556
44820.0 1.962623
44830.0 1.962212
44840.0 1.962282
44850.0 1.962011
44860.0 1.961888
44870.0 1.961748
44880.0 1.961635
44890.0 1.961765
44900.0 1.961298
44910.0 1.961136
44920.0 1.961324
44930.0 1.961356
44940.0 1.961066
44950.0 1.960931
44960.0 1.960891
44970.0 1.961265
44980.0 1.961526
44990.0 1.961531
45000.0 1.961405
45010.0 1.961333
45020.0 1.961357
45030.0 1.960976
45040.0 1.960542
45050.0 1.960544
45060.0 1.960255
45070.0 1.960068
45080.0 1.959999
45090.0 1.960219
45100.0 1.960352
45110.0 1.960332
45120.0 1.960230
45130.0 1.960167
45140.0 1.960093
45150.0 1.959927
45160.0 1.960467
45170.0 1.960255
45180.0 1.959880
45190.0 1.959662
45200.0 1.959393
45210.0 1.959212
45220.0 1.959288
45230.0 1.959593
45240.0 1.959413
45250.0 1.959176
45260.0 1.959166
45270.0 1.958947
45280.0 1.959294
45290.0 1.959641
45300.0 1.959423
45310.0 1.959299
45320.0 1.958921
45330.0 1.959894
45340.0 1.959659
45350.0 1.959616
45360.0 1.959347
45370.0 1.959906
45380.0 1.959868
45390.0 1.959658
45400.0 1.959281
45410.0 1.959219
45420.0 1.959563
45430.0 1.959253
45440.0 1.959350
45450.0 1.959268
45460.0 1.959286
45470.0 1.959231
45480.0 1.959034
45490.0 1.959110
45500.0 1.958836
45510.0 1.958590
45520.0 1.958997
45530.0 1.959061
45540.0 1.958774
45550.0 1.958993
45560.0 1.958842
45570.0 1.958789
45580.0 1.958738
45590.0 1.958351
45600.0 1.958375
45610.0 1.958330
45620.0 1.958008
45630.0 1.958089
45640.0 1.958175
45650.0 1.957986
45660.0 1.957921
45670.0 1.957757
45680.0 1.958009
45690.0 1.957541
45700.0 1.957403
45710.0 1.957446
45720.0 1.957298
45730.0 1.957458
45740.0 1.956969
45750.0 1.956891
45760.0 1.956786
45770.0 1.956704
45780.0 1.956579
45790.0 1.956460
45800.0 1.956170
45810.0 1.955951
45820.0 1.955857
45830.0 1.956026
45840.0 1.956459
45850.0 1.956256
45860.0 1.956370
45870.0 1.956141
45880.0 1.956080
45890.0 1.955966
45900.0 1.956153
45910.0 1.956111
45920.0 1.955899
45930.0 1.955755
45940.0 1.955556
45950.0 1.955113
45960.0 1.954913
45970.0 1.954844
45980.0 1.954952
45990.0 1.955810
46000.0 1.955549
46010.0 1.956981
46020.0 1.956644
46030.0 1.956374
46040.0 1.956484
46050.0 1.956312
46060.0 1.956278
46070.0 1.956538
46080.0 1.956375
46090.0 1.956322
46100.0 1.956500
46110.0 1.956637
46120.0 1.956440
46130.0 1.956029
46140.0 1.956051
46150.0 1.956231
46160.0 1.956701
46170.0 1.956536
46180.0 1.957476
46190.0 1.957474
46200.0 1.957317
46210.0 1.957117
46220.0 1.956785
46230.0 1.957008
46240.0 1.956854
46250.0 1.956793
46260.0 1.956443
46270.0 1.956034
46280.0 1.955906
46290.0 1.955976
46300.0 1.955630
46310.0 1.955504
46320.0 1.955369
46330.0 1.955373
46340.0 1.955207
46350.0 1.954868
46360.0 1.954808
46370.0 1.954649
46380.0 1.954677
46390.0 1.954535
46400.0 1.954717
46410.0 1.954849
46420.0 1.956233
46430.0 1.956260
46440.0 1.956263
46450.0 1.956059
46460.0 1.956062
46470.0 1.956545
46480.0 1.957117
46490.0 1.957071
46500.0 1.956927
46510.0 1.956930
46520.0 1.957263
46530.0 1.957466
46540.0 1.957759
46550.0 1.957653
46560.0 1.957334
46570.0 1.957059
46580.0 1.956678
46590.0 1.956718
46600.0 1.956667
46610.0 1.956379
46620.0 1.956241
46630.0 1.956266
46640.0 1.955978
46650.0 1.955931
46660.0 1.955840
46670.0 1.955462
46680.0 1.955328
46690.0 1.955570
46700.0 1.955422
46710.0 1.955254
46720.0 1.954980
46730.0 1.954863
46740.0 1.954760
46750.0 1.954631
46760.0 1.954420
46770.0 1.954170
46780.0 1.954034
46790.0 1.954590
46800.0 1.954814
46810.0 1.954617
46820.0 1.954408
46830.0 1.954441
46840.0 1.956517
46850.0 1.956772
46860.0 1.956710
46870.0 1.956553
46880.0 1.956358
46890.0 1.956116
46900.0 1.955950
46910.0 1.955749
46920.0 1.955742
46930.0 1.955547
46940.0 1.955455
46950.0 1.955250
46960.0 1.955027
46970.0 1.955233
46980.0 1.954849
46990.0 1.954641
47000.0 1.954309
47010.0 1.954123
47020.0 1.954035
47030.0 1.953843
47040.0 1.953488
47050.0 1.953273
47060.0 1.952975
47070.0 1.953257
47080.0 1.953092
47090.0 1.953072
47100.0 1.953047
47110.0 1.953050
47120.0 1.952915
47130.0 1.952734
47140.0 1.952470
47150.0 1.952297
47160.0 1.952245
47170.0 1.952128
47180.0 1.952537
47190.0 1.952269
47200.0 1.952081
47210.0 1.951907
47220.0 1.951963
47230.0 1.951688
47240.0 1.951485
47250.0 1.951440
47260.0 1.951098
47270.0 1.950788
47280.0 1.950650
47290.0 1.950529
47300.0 1.950478
47310.0 1.950317
47320.0 1.950051
47330.0 1.949846
47340.0 1.949696
47350.0 1.950005
47360.0 1.949883
47370.0 1.949727
47380.0 1.949922
47390.0 1.950029
47400.0 1.949826
47410.0 1.949916
47420.0 1.949718
47430.0 1.949474
47440.0 1.949343
47450.0 1.949267
47460.0 1.949256
47470.0 1.948888
47480.0 1.948510
47490.0 1.948334
47500.0 1.948093
47510.0 1.948555
47520.0 1.948637
47530.0 1.948598
47540.0 1.948365
47550.0 1.947994
47560.0 1.947912
47570.0 1.947954
47580.0 1.947822
47590.0 1.947774
47600.0 1.947583
47610.0 1.947226
47620.0 1.947523
47630.0 1.948133
47640.0 1.948175
47650.0 1.947924
47660.0 1.947709
47670.0 1.947548
47680.0 1.947546
47690.0 1.948747
47700.0 1.948865
47710.0 1.948837
47720.0 1.948660
47730.0 1.948618
47740.0 1.948587
47750.0 1.949341
47760.0 1.949974
47770.0 1.949586
47780.0 1.950341
47790.0 1.950585
47800.0 1.951019
47810.0 1.951023
47820.0 1.952112
47830.0 1.952656
47840.0 1.953120
47850.0 1.953021
47860.0 1.952719
47870.0 1.952495
47880.0 1.952747
47890.0 1.952623
47900.0 1.952678
47910.0 1.952673
47920.0 1.952402
47930.0 1.952163
47940.0 1.952085
47950.0 1.951880
47960.0 1.951533
47970.0 1.951693
47980.0 1.952399
47990.0 1.952121
48000.0 1.951993
48010.0 1.951909
48020.0 1.951712
48030.0 1.951613
48040.0 1.951364
48050.0 1.951246
48060.0 1.951222
48070.0 1.951196
48080.0 1.951024
48090.0 1.950805
48100.0 1.950835
48110.0 1.950787
48120.0 1.950625
48130.0 1.950450
48140.0 1.950244
48150.0 1.950092
48160.0 1.950052
48170.0 1.949814
48180.0 1.949953
48190.0 1.949921
48200.0 1.949764
48210.0 1.949658
48220.0 1.949973
48230.0 1.949984
48240.0 1.949831
48250.0 1.949880
48260.0 1.949652
48270.0 1.949995
48280.0 1.950870
48290.0 1.951037
48300.0 1.950901
48310.0 1.950571
48320.0 1.950516
48330.0 1.950425
48340.0 1.950353
48350.0 1.950177
48360.0 1.950006
48370.0 1.949726
48380.0 1.950095
48390.0 1.950062
48400.0 1.950276
48410.0 1.950479
48420.0 1.950470
48430.0 1.950557
48440.0 1.950627
48450.0 1.950433
48460.0 1.951004
48470.0 1.950717
48480.0 1.950654
48490.0 1.950667
48500.0 1.950496
48510.0 1.950122
48520.0 1.950047
48530.0 1.950194
48540.0 1.952213
48550.0 1.954038
48560.0 1.955074
48570.0 1.956415
48580.0 1.956355
48590.0 1.956322
48600.0 1.956238
48610.0 1.956116
48620.0 1.957042
48630.0 1.957635
48640.0 1.957508
48650.0 1.957746
48660.0 1.957476
48670.0 1.957467
48680.0 1.957443
48690.0 1.957662
48700.0 1.957885
48710.0 1.957777
48720.0 1.957864
48730.0 1.957459
48740.0 1.957318
48750.0 1.957479
48760.0 1.957058
48770.0 1.956947
48780.0 1.956739
48790.0 1.957430
48800.0 1.957311
48810.0 1.957236
48820.0 1.957341
48830.0 1.957239
48840.0 1.957101
48850.0 1.957075
48860.0 1.957050
48870.0 1.956859
48880.0 1.956669
48890.0 1.956669
48900.0 1.956655
48910.0 1.957142
48920.0 1.956956
48930.0 1.956818
48940.0 1.956579
48950.0 1.956586
48960.0 1.956486
48970.0 1.956318
48980.0 1.956191
48990.0 1.956009
49000.0 1.955884
49010.0 1.956407
49020.0 1.956350
49030.0 1.957014
49040.0 1.958678
49050.0 1.960176
49060.0 1.960056
49070.0 1.959969
49080.0 1.960146
49090.0 1.960058
49100.0 1.959980
49110.0 1.959806
49120.0 1.959530
49130.0 1.959829
49140.0 1.959828
49150.0 1.959936
49160.0 1.959672
49170.0 1.959862
49180.0 1.959596
49190.0 1.959500
49200.0 1.959829
49210.0 1.959799
49220.0 1.960828
49230.0 1.961643
49240.0 1.961463
49250.0 1.961230
49260.0 1.961425
49270.0 1.961261
49280.0 1.961238
49290.0 1.961169
49300.0 1.960956
49310.0 1.960885
49320.0 1.960669
49330.0 1.960523
49340.0 1.960817
49350.0 1.960764
49360.0 1.960753
49370.0 1.960809
49380.0 1.960866
49390.0 1.960851
49400.0 1.960709
49410.0 1.960394
49420.0 1.962056
49430.0 1.965162
49440.0 1.967997
49450.0 1.968493
49460.0 1.968572
49470.0 1.968445
49480.0 1.968772
49490.0 1.968754
49500.0 1.969166
49510.0 1.969209
49520.0 1.969051
49530.0 1.968933
49540.0 1.969076
49550.0 1.968781
49560.0 1.968735
49570.0 1.968462
49580.0 1.968730
49590.0 1.968506
49600.0 1.968482
49610.0 1.968399
49620.0 1.968143
49630.0 1.968101
49640.0 1.967848
49650.0 1.967573
49660.0 1.967312
49670.0 1.967164
49680.0 1.967001
49690.0 1.966762
49700.0 1.966533
49710.0 1.966496
49720.0 1.966324
49730.0 1.966317
49740.0 1.966043
49750.0 1.965884
49760.0 1.965595
49770.0 1.965595
49780.0 1.965521
49790.0 1.965376
49800.0 1.965202
49810.0 1.965170
49820.0 1.964889
49830.0 1.964666
49840.0 1.964839
49850.0 1.964751
49860.0 1.964505
49870.0 1.964211
49880.0 1.964161
49890.0 1.963875
49900.0 1.963608
49910.0 1.963592
49920.0 1.963918
49930.0 1.963932
49940.0 1.963847
49950.0 1.963642
49960.0 1.963540
49970.0 1.963514
49980.0 1.963467
49990.0 1.963478
50000.0 1.963434
50010.0 1.963148
50020.0 1.963095
50030.0 1.962820
50040.0 1.962726
50050.0 1.962713
50060.0 1.964192
50070.0 1.964079
50080.0 1.963904
50090.0 1.963673
50100.0 1.963215
50110.0 1.963338
50120.0 1.963162
50130.0 1.963163
50140.0 1.963115
50150.0 1.963307
50160.0 1.963369
50170.0 1.963154
50180.0 1.963133
50190.0 1.965408
50200.0 1.967799
50210.0 1.970395
50220.0 1.971285
50230.0 1.971101
50240.0 1.971087
50250.0 1.970843
50260.0 1.970668
50270.0 1.970432
50280.0 1.970364
50290.0 1.969981
50300.0 1.969792
50310.0 1.969386
50320.0 1.969195
50330.0 1.969218
50340.0 1.969142
50350.0 1.969099
50360.0 1.968893
50370.0 1.968795
50380.0 1.969102
50390.0 1.968933
50400.0 1.968833
50410.0 1.968720
50420.0 1.968630
50430.0 1.968562
50440.0 1.968243
50450.0 1.968152
50460.0 1.968100
50470.0 1.967885
50480.0 1.968156
50490.0 1.967937
50500.0 1.967695
50510.0 1.967626
50520.0 1.967698
50530.0 1.967693
50540.0 1.967536
50550.0 1.967452
50560.0 1.967211
50570.0 1.966918
50580.0 1.967688
50590.0 1.967591
50600.0 1.967365
50610.0 1.967166
50620.0 1.967013
50630.0 1.967079
50640.0 1.966808
50650.0 1.966642
50660.0 1.966701
50670.0 1.966558
50680.0 1.967086
50690.0 1.967764
50700.0 1.967650
50710.0 1.967615
50720.0 1.968221
50730.0 1.968184
50740.0 1.968536
50750.0 1.968348
50760.0 1.968455
50770.0 1.968540
50780.0 1.968391
50790.0 1.968085
50800.0 1.967921
50810.0 1.967795
50820.0 1.967689
50830.0 1.967738
50840.0 1.968256
50850.0 1.968025
50860.0 1.967772
50870.0 1.967397
50880.0 1.967298
50890.0 1.967345
50900.0 1.967218
50910.0 1.967242
50920.0 1.967652
50930.0 1.968601
50940.0 1.968494
50950.0 1.968109
50960.0 1.967902
50970.0 1.967602
50980.0 1.967635
50990.0 1.968060
51000.0 1.969331
51010.0 1.969960
51020.0 1.969527
51030.0 1.969365
51040.0 1.969220
51050.0 1.968994
51060.0 1.968967
51070.0 1.968811
51080.0 1.968707
51090.0 1.968424
51100.0 1.968183
51110.0 1.967916
51120.0 1.967720
51130.0 1.967561
51140.0 1.967537
51150.0 1.967721
51160.0 1.967540
51170.0 1.967344
51180.0 1.967173
51190.0 1.967293
51200.0 1.967493
51210.0 1.968017
51220.0 1.967925
51230.0 1.967830
51240.0 1.967703
51250.0 1.967899
51260.0 1.967713
51270.0 1.967424
51280.0 1.967326
51290.0 1.967132
51300.0 1.967130
51310.0 1.966717
51320.0 1.966604
51330.0 1.966501
51340.0 1.966373
51350.0 1.966094
51360.0 1.965926
51370.0 1.965577
51380.0 1.965481
51390.0 1.965550
51400.0 1.965780
51410.0 1.967217
51420.0 1.968675
51430.0 1.970083
51440.0 1.970892
51450.0 1.971273
51460.0 1.971100
51470.0 1.970900
51480.0 1.970736
51490.0 1.970631
51500.0 1.970459
51510.0 1.970117
51520.0 1.970934
51530.0 1.970580
51540.0 1.970740
51550.0 1.971107
51560.0 1.971174
51570.0 1.971197
51580.0 1.970700
51590.0 1.971552
51600.0 1.971592
51610.0 1.971574
51620.0 1.971657
51630.0 1.971742
51640.0 1.971356
51650.0 1.971250
51660.0 1.971081
51670.0 1.970838
51680.0 1.970606
51690.0 1.970801
51700.0 1.970493
51710.0 1.970369
51720.0 1.970380
51730.0 1.970267
51740.0 1.970910
51750.0 1.971204
51760.0 1.972525
51770.0 1.973890
51780.0 1.973603
51790.0 1.973603
51800.0 1.973354
51810.0 1.973126
51820.0 1.973111
51830.0 1.972881
51840.0 1.973006
51850.0 1.972890
51860.0 1.972820
51870.0 1.972786
51880.0 1.972715
51890.0 1.972559
51900.0 1.972559
51910.0 1.972266
51920.0 1.972249
51930.0 1.971948
51940.0 1.971621
51950.0 1.971454
51960.0 1.971066
51970.0 1.972144
51980.0 1.973846
51990.0 1.974678
52000.0 1.974759
52010.0 1.974524
52020.0 1.974566
52030.0 1.974420
52040.0 1.974962
52050.0 1.974529
52060.0 1.974367
52070.0 1.974187
52080.0 1.974453
52090.0 1.974345
52100.0 1.974136
52110.0 1.973987
52120.0 1.973775
52130.0 1.973623
52140.0 1.973495
52150.0 1.973674
52160.0 1.973448
52170.0 1.973559
52180.0 1.973388
52190.0 1.972973
52200.0 1.973105
52210.0 1.973297
52220.0 1.973192
52230.0 1.973042
52240.0 1.973253
52250.0 1.973820
52260.0 1.973576
52270.0 1.973717
52280.0 1.973527
52290.0 1.973590
52300.0 1.974188
52310.0 1.974102
52320.0 1.973920
52330.0 1.973858
52340.0 1.973861
52350.0 1.973726
52360.0 1.973841
52370.0 1.973275
52380.0 1.973146
52390.0 1.973184
52400.0 1.973165
52410.0 1.973091
52420.0 1.973036
52430.0 1.972984
52440.0 1.972683
52450.0 1.972587
52460.0 1.972307
52470.0 1.972000
52480.0 1.972245
52490.0 1.972013
52500.0 1.971818
52510.0 1.971439
52520.0 1.971314
52530.0 1.971452
52540.0 1.971203
52550.0 1.971964
52560.0 1.971691
52570.0 1.971330
52580.0 1.971566
52590.0 1.971632
52600.0 1.971603
52610.0 1.971575
52620.0 1.971438
52630.0 1.971498
52640.0 1.971323
52650.0 1.971207
52660.0 1.972147
52670.0 1.972789
52680.0 1.974156
52690.0 1.974423
52700.0 1.974643
52710.0 1.974501
52720.0 1.974488
52730.0 1.974393
52740.0 1.974338
52750.0 1.974181
52760.0 1.974015
52770.0 1.973868
52780.0 1.973830
52790.0 1.973918
52800.0 1.973768
52810.0 1.973659
52820.0 1.973578
52830.0 1.973449
52840.0 1.973621
52850.0 1.973265
52860.0 1.973928
52870.0 1.973827
52880.0 1.973701
52890.0 1.973560
52900.0 1.973380
52910.0 1.973255
52920.0 1.973295
52930.0 1.974369
52940.0 1.974524
52950.0 1.974410
52960.0 1.974475
52970.0 1.974242
52980.0 1.974174
52990.0 1.974060
53000.0 1.974294
53010.0 1.974215
53020.0 1.973970
53030.0 1.973827
53040.0 1.973729
53050.0 1.973627
53060.0 1.973553
53070.0 1.973389
53080.0 1.973396
53090.0 1.973200
53100.0 1.972770
53110.0 1.972693
53120.0 1.972579
53130.0 1.972486
53140.0 1.972388
53150.0 1.972339
53160.0 1.972306
53170.0 1.971967
53180.0 1.971856
53190.0 1.972210
53200.0 1.972773
53210.0 1.973408
53220.0 1.973530
53230.0 1.973512
53240.0 1.974148
53250.0 1.974078
53260.0 1.974006
53270.0 1.973885
53280.0 1.974098
53290.0 1.973863
53300.0 1.973712
53310.0 1.973666
53320.0 1.973360
53330.0 1.973719
53340.0 1.973409
53350.0 1.973182
53360.0 1.972934
53370.0 1.972863
53380.0 1.972673
53390.0 1.973751
53400.0 1.974204
53410.0 1.974132
53420.0 1.973975
53430.0 1.974060
53440.0 1.973914
53450.0 1.973672
53460.0 1.973474
53470.0 1.973274
53480.0 1.973137
53490.0 1.972789
53500.0 1.972546
53510.0 1.972629
53520.0 1.972172
53530.0 1.972221
53540.0 1.972432
53550.0 1.972550
53560.0 1.972310
53570.0 1.972257
53580.0 1.972181
53590.0 1.971812
53600.0 1.971487
53610.0 1.971408
53620.0 1.971216
53630.0 1.971703
53640.0 1.971834
53650.0 1.971809
53660.0 1.971604
53670.0 1.971572
53680.0 1.971635
53690.0 1.971440
53700.0 1.972832
53710.0 1.973075
53720.0 1.973653
53730.0 1.974280
53740.0 1.974284
53750.0 1.974097
53760.0 1.973963
53770.0 1.973784
53780.0 1.973786
53790.0 1.973625
53800.0 1.973594
53810.0 1.974064
53820.0 1.976192
53830.0 1.977524
53840.0 1.977285
53850.0 1.977140
53860.0 1.976841
53870.0 1.976641
53880.0 1.976588
53890.0 1.976863
53900.0 1.976591
53910.0 1.976647
53920.0 1.976531
53930.0 1.976302
53940.0 1.976017
53950.0 1.975884
53960.0 1.975807
53970.0 1.975549
53980.0 1.975599
53990.0 1.975540
54000.0 1.975611
54010.0 1.975422
54020.0 1.975383
54030.0 1.975174
54040.0 1.975078
54050.0 1.975030
54060.0 1.974972
54070.0 1.974782
54080.0 1.974740
54090.0 1.974433
54100.0 1.974128
54110.0 1.974220
54120.0 1.974337
54130.0 1.974373
54140.0 1.974379
54150.0 1.974848
54160.0 1.974721
54170.0 1.974555
54180.0 1.974392
54190.0 1.974323
54200.0 1.974130
54210.0 1.974146
54220.0 1.974156
54230.0 1.974003
54240.0 1.973828
54250.0 1.973478
54260.0 1.973583
54270.0 1.973765
54280.0 1.973615
54290.0 1.973649
54300.0 1.973582
54310.0 1.973337
54320.0 1.973633
54330.0 1.976254
54340.0 1.976564
54350.0 1.976235
54360.0 1.975977
54370.0 1.975786
54380.0 1.975806
54390.0 1.975683
54400.0 1.975718
54410.0 1.976413
54420.0 1.976406
54430.0 1.976688
54440.0 1.976743
54450.0 1.976713
54460.0 1.976395
54470.0 1.976116
54480.0 1.976036
54490.0 1.975844
54500.0 1.975881
54510.0 1.975770
54520.0 1.975611
54530.0 1.975975
54540.0 1.975717
54550.0 1.975754
54560.0 1.975629
54570.0 1.975520
54580.0 1.975478
54590.0 1.975302
54600.0 1.975082
54610.0 1.974897
54620.0 1.974990
54630.0 1.974920
54640.0 1.975454
54650.0 1.975462
54660.0 1.975485
54670.0 1.975186
54680.0 1.975107
54690.0 1.975039
54700.0 1.975021
54710.0 1.974827
54720.0 1.974826
54730.0 1.974907
54740.0 1.974674
54750.0 1.974406
54760.0 1.974247
54770.0 1.974420
54780.0 1.974304
54790.0 1.974160
54800.0 1.973819
54810.0 1.973705
54820.0 1.973635
54830.0 1.973334
54840.0 1.973379
54850.0 1.973324
54860.0 1.973105
54870.0 1.973390
54880.0 1.973068
54890.0 1.973165
54900.0 1.973032
54910.0 1.972721
54920.0 1.972602
54930.0 1.972477
54940.0 1.973271
54950.0 1.972876
54960.0 1.972978
54970.0 1.972730
54980.0 1.972609
54990.0 1.972419
55000.0 1.972333
55010.0 1.972248
55020.0 1.972113
55030.0 1.972033
55040.0 1.971970
55050.0 1.971915
55060.0 1.971679
55070.0 1.971632
55080.0 1.971584
55090.0 1.971682
55100.0 1.971761
55110.0 1.971728
55120.0 1.971412
55130.0 1.971287
55140.0 1.971067
55150.0 1.971147
55160.0 1.971011
55170.0 1.970599
55180.0 1.970690
55190.0 1.970835
55200.0 1.970725
55210.0 1.970666
55220.0 1.970564
55230.0 1.970371
55240.0 1.970203
55250.0 1.969770
55260.0 1.970079
55270.0 1.970199
55280.0 1.970122
55290.0 1.969962
55300.0 1.969839
55310.0 1.970020
55320.0 1.970025
55330.0 1.969983
55340.0 1.969735
55350.0 1.969700
55360.0 1.969618
55370.0 1.969463
55380.0 1.969131
55390.0 1.969265
55400.0 1.969661
55410.0 1.969957
55420.0 1.969757
55430.0 1.969511
55440.0 1.969253
55450.0 1.969053
55460.0 1.969055
55470.0 1.968945
55480.0 1.968867
55490.0 1.968824
55500.0 1.968675
55510.0 1.968519
55520.0 1.968386
55530.0 1.968320
55540.0 1.968083
55550.0 1.967868
55560.0 1.967741
55570.0 1.967655
55580.0 1.967647
55590.0 1.967487
55600.0 1.967324
55610.0 1.967449
55620.0 1.967248
55630.0 1.967038
55640.0 1.967501
55650.0 1.967686
55660.0 1.967390
55670.0 1.967765
55680.0 1.968084
55690.0 1.968166
55700.0 1.968604
55710.0 1.968507
55720.0 1.968492
55730.0 1.968468
55740.0 1.968466
55750.0 1.968709
55760.0 1.968482
55770.0 1.968149
55780.0 1.968719
55790.0 1.968566
55800.0 1.968485
55810.0 1.968164
55820.0 1.968331
55830.0 1.968046
55840.0 1.967927
55850.0 1.967763
55860.0 1.967680
55870.0 1.967916
55880.0 1.968038
55890.0 1.967853
55900.0 1.967806
55910.0 1.967613
55920.0 1.967586
55930.0 1.967382
55940.0 1.967341
55950.0 1.967173
55960.0 1.966961
55970.0 1.966729
55980.0 1.966741
55990.0 1.966479
56000.0 1.966461
56010.0 1.966246
56020.0 1.966040
56030.0 1.965951
56040.0 1.965848
56050.0 1.965700
56060.0 1.965436
56070.0 1.965264
56080.0 1.965337
56090.0 1.965436
56100.0 1.965321
56110.0 1.965186
56120.0 1.964937
56130.0 1.964811
56140.0 1.964598
56150.0 1.964554
56160.0 1.964408
56170.0 1.964214
56180.0 1.964225
56190.0 1.964788
56200.0 1.964691
56210.0 1.965127
56220.0 1.965826
56230.0 1.965858
56240.0 1.965736
56250.0 1.966150
56260.0 1.966935
56270.0 1.966826
56280.0 1.966628
56290.0 1.966376
56300.0 1.966184
56310.0 1.966370
56320.0 1.966192
56330.0 1.966618
56340.0 1.966705
56350.0 1.966823
56360.0 1.966703
56370.0 1.966694
56380.0 1.966403
56390.0 1.966301
56400.0 1.966480
56410.0 1.968685
56420.0 1.969827
56430.0 1.972287
56440.0 1.973021
56450.0 1.973043
56460.0 1.972852
56470.0 1.972702
56480.0 1.972423
56490.0 1.972311
56500.0 1.972252
56510.0 1.972275
56520.0 1.972201
56530.0 1.972580
56540.0 1.972528
56550.0 1.972554
56560.0 1.973135
56570.0 1.972832
56580.0 1.972780
56590.0 1.972580
56600.0 1.972507
56610.0 1.972474
56620.0 1.972432
56630.0 1.972258
56640.0 1.972246
56650.0 1.972154
56660.0 1.971866
56670.0 1.971872
56680.0 1.971697
56690.0 1.971606
56700.0 1.971465
56710.0 1.971416
56720.0 1.971214
56730.0 1.971011
56740.0 1.971035
56750.0 1.970916
56760.0 1.970710
56770.0 1.970488
56780.0 1.970446
56790.0 1.970256
56800.0 1.970046
56810.0 1.969934
56820.0 1.970428
56830.0 1.970220
56840.0 1.970150
56850.0 1.970373
56860.0 1.970169
56870.0 1.969833
56880.0 1.969849
56890.0 1.969782
56900.0 1.969740
56910.0 1.969621
56920.0 1.969354
56930.0 1.969386
56940.0 1.969372
56950.0 1.969213
56960.0 1.969021
56970.0 1.968881
56980.0 1.968758
56990.0 1.968750
57000.0 1.968926
57010.0 1.969007
57020.0 1.968837
57030.0 1.968691
57040.0 1.969899
57050.0 1.970075
57060.0 1.969905
57070.0 1.970305
57080.0 1.970486
57090.0 1.970620
57100.0 1.970532
57110.0 1.970426
57120.0 1.970283
57130.0 1.970910
57140.0 1.970724
57150.0 1.970626
57160.0 1.970615
57170.0 1.970486
57180.0 1.970490
57190.0 1.970313
57200.0 1.970204
57210.0 1.970114
57220.0 1.970267
57230.0 1.970111
57240.0 1.970198
57250.0 1.969952
57260.0 1.969805
57270.0 1.970202
57280.0 1.970266
57290.0 1.970049
57300.0 1.970194
57310.0 1.970290
57320.0 1.970234
57330.0 1.970185
57340.0 1.970511
57350.0 1.970696
57360.0 1.970360
57370.0 1.970498
57380.0 1.970657
57390.0 1.970552
57400.0 1.970365
57410.0 1.970024
57420.0 1.969891
57430.0 1.969870
57440.0 1.969825
57450.0 1.969777
57460.0 1.969574
57470.0 1.969357
57480.0 1.969357
57490.0 1.969267
57500.0 1.969042
57510.0 1.969088
57520.0 1.968974
57530.0 1.969976
57540.0 1.971540
57550.0 1.974260
57560.0 1.976694
57570.0 1.977520
57580.0 1.977446
57590.0 1.977189
57600.0 1.976983
57610.0 1.976925
57620.0 1.976648
57630.0 1.976924
57640.0 1.976831
57650.0 1.976797
57660.0 1.976564
57670.0 1.976933
57680.0 1.976700
57690.0 1.976572
57700.0 1.976622
57710.0 1.977513
57720.0 1.977440
57730.0 1.977710
57740.0 1.977631
57750.0 1.977404
57760.0 1.977025
57770.0 1.976811
57780.0 1.976713
57790.0 1.976588
57800.0 1.976508
57810.0 1.976271
57820.0 1.976104
57830.0 1.976002
57840.0 1.975962
57850.0 1.975798
57860.0 1.975724
57870.0 1.975873
57880.0 1.976236
57890.0 1.976391
57900.0 1.976287
57910.0 1.977474
57920.0 1.977450
57930.0 1.977450
57940.0 1.977519
57950.0 1.978309
57960.0 1.979648
57970.0 1.980788
57980.0 1.981254
57990.0 1.981052
58000.0 1.980780
58010.0 1.980724
58020.0 1.980574
58030.0 1.980321
58040.0 1.980364
58050.0 1.980328
58060.0 1.980240
58070.0 1.980700
58080.0 1.981028
58090.0 1.981108
58100.0 1.981023
58110.0 1.980931
58120.0 1.980722
58130.0 1.980758
58140.0 1.980590
58150.0 1.980243
58160.0 1.980155
58170.0 1.979866
58180.0 1.979867
58190.0 1.979646
58200.0 1.979507
58210.0 1.979561
58220.0 1.979672
58230.0 1.979911
58240.0 1.979981
58250.0 1.980276
58260.0 1.980147
58270.0 1.979965
58280.0 1.979823
58290.0 1.979607
58300.0 1.979398
58310.0 1.979210
58320.0 1.979344
58330.0 1.979067
58340.0 1.979209
58350.0 1.979040
58360.0 1.979064
58370.0 1.979148
58380.0 1.979035
58390.0 1.978925
58400.0 1.978696
58410.0 1.978613
58420.0 1.978392
58430.0 1.978433
58440.0 1.978417
58450.0 1.978152
58460.0 1.977965
58470.0 1.977730
58480.0 1.977689
58490.0 1.977823
58500.0 1.977995
58510.0 1.977985
58520.0 1.977853
58530.0 1.977630
58540.0 1.977463
58550.0 1.977397
58560.0 1.977347
58570.0 1.977044
58580.0 1.976918
58590.0 1.976775
58600.0 1.976523
58610.0 1.976605
58620.0 1.976362
58630.0 1.976348
58640.0 1.976002
58650.0 1.975819
58660.0 1.975582
58670.0 1.975467
58680.0 1.975860
58690.0 1.975717
58700.0 1.975563
58710.0 1.975811
58720.0 1.976337
58730.0 1.976340
58740.0 1.976034
58750.0 1.975987
58760.0 1.975718
58770.0 1.975335
58780.0 1.975189
58790.0 1.975232
58800.0 1.976584
58810.0 1.976589
58820.0 1.976576
58830.0 1.976554
58840.0 1.976220
58850.0 1.976100
58860.0 1.976084
58870.0 1.976121
58880.0 1.975937
58890.0 1.976178
58900.0 1.976312
58910.0 1.976439
58920.0 1.976346
58930.0 1.976361
58940.0 1.976443
58950.0 1.976337
58960.0 1.976147
58970.0 1.975955
58980.0 1.975681
58990.0 1.975608
59000.0 1.975438
59010.0 1.975177
59020.0 1.975013
59030.0 1.975026
59040.0 1.974842
59050.0 1.974657
59060.0 1.974531
59070.0 1.974367
59080.0 1.974237
59090.0 1.974018
59100.0 1.973930
59110.0 1.973898
59120.0 1.974056
59130.0 1.973887
59140.0 1.973724
59150.0 1.973601
59160.0 1.973593
59170.0 1.973551
59180.0 1.973461
59190.0 1.973216
59200.0 1.973073
59210.0 1.973172
59220.0 1.973715
59230.0 1.973651
59240.0 1.973695
59250.0 1.973741
59260.0 1.973603
59270.0 1.973571
59280.0 1.973592
59290.0 1.973382
59300.0 1.973378
59310.0 1.973643
59320.0 1.973356
59330.0 1.973158
59340.0 1.973007
59350.0 1.972791
59360.0 1.973888
59370.0 1.976241
59380.0 1.978433
59390.0 1.980047
59400.0 1.980137
59410.0 1.979818
59420.0 1.979725
59430.0 1.979508
59440.0 1.979460
59450.0 1.979374
59460.0 1.979150
59470.0 1.979233
59480.0 1.979233
59490.0 1.979108
59500.0 1.979231
59510.0 1.979136
59520.0 1.979318
59530.0 1.979482
59540.0 1.979586
59550.0 1.979369
59560.0 1.979108
59570.0 1.978751
59580.0 1.979077
59590.0 1.979319
59600.0 1.979501
59610.0 1.979531
59620.0 1.979439
59630.0 1.979861
59640.0 1.979638
59650.0 1.979992
59660.0 1.979927
59670.0 1.979745
59680.0 1.979644
59690.0 1.980579
59700.0 1.980475
59710.0 1.980404
59720.0 1.980478
59730.0 1.980344
59740.0 1.980345
59750.0 1.980420
59760.0 1.980531
59770.0 1.980701
59780.0 1.980578
59790.0 1.980431
59800.0 1.980639
59810.0 1.980545
59820.0 1.981066
59830.0 1.981140
59840.0 1.981132
59850.0 1.981024
59860.0 1.980829
59870.0 1.980674
59880.0 1.980635
59890.0 1.980690
59900.0 1.980532
59910.0 1.980201
59920.0 1.980233
59930.0 1.980057
59940.0 1.980067
59950.0 1.979986
59960.0 1.979806
59970.0 1.979697
59980.0 1.979689
59990.0 1.979215
60000.0 1.979177
60010.0 1.978960
60020.0 1.978876
60030.0 1.978963
60040.0 1.980361
60050.0 1.981079
60060.0 1.981462
60070.0 1.981419
60080.0 1.981279
60090.0 1.981079
60100.0 1.981202
60110.0 1.981429
60120.0 1.981269
60130.0 1.981049
60140.0 1.980906
60150.0 1.980835
60160.0 1.980760
60170.0 1.980685
60180.0 1.980455
60190.0 1.980346
60200.0 1.980086
60210.0 1.979853
60220.0 1.980242
60230.0 1.980583
60240.0 1.980479
60250.0 1.980454
60260.0 1.980192
60270.0 1.981031
60280.0 1.980890
60290.0 1.980930
60300.0 1.981030
60310.0 1.981062
60320.0 1.981301
60330.0 1.981162
60340.0 1.980942
60350.0 1.980749
60360.0 1.980709
60370.0 1.980474
60380.0 1.980615
60390.0 1.980528
60400.0 1.980166
60410.0 1.979967
60420.0 1.979877
60430.0 1.979668
60440.0 1.979684
60450.0 1.980045
60460.0 1.979843
60470.0 1.979654
60480.0 1.979371
60490.0 1.979337
60500.0 1.979329
60510.0 1.979397
60520.0 1.979412
60530.0 1.979352
60540.0 1.979329
60550.0 1.979650
60560.0 1.979727
60570.0 1.979405
60580.0 1.979244
60590.0 1.979028
60600.0 1.978944
60610.0 1.978720
60620.0 1.978896
60630.0 1.978660
60640.0 1.978719
60650.0 1.978790
60660.0 1.978821
60670.0 1.978620
60680.0 1.978820
60690.0 1.978646
60700.0 1.978543
60710.0 1.978318
60720.0 1.978172
60730.0 1.978176
60740.0 1.979096
60750.0 1.979289
60760.0 1.979266
60770.0 1.979066
60780.0 1.979273
60790.0 1.979280
60800.0 1.979140
60810.0 1.979160
60820.0 1.978930
60830.0 1.978824
60840.0 1.978740
60850.0 1.978555
60860.0 1.978606
60870.0 1.978583
60880.0 1.978648
60890.0 1.978530
60900.0 1.978450
60910.0 1.978328
60920.0 1.978255
60930.0 1.978095
60940.0 1.978009
60950.0 1.978149
60960.0 1.978128
60970.0 1.978042
60980.0 1.977966
60990.0 1.977709
61000.0 1.978513
61010.0 1.978734
61020.0 1.978743
61030.0 1.978729
61040.0 1.978622
61050.0 1.978574
61060.0 1.978687
61070.0 1.979000
61080.0 1.979720
61090.0 1.979567
61100.0 1.979406
61110.0 1.979088
61120.0 1.979031
61130.0 1.979359
61140.0 1.979589
61150.0 1.979842
61160.0 1.979638
61170.0 1.979783
61180.0 1.979543
61190.0 1.979572
61200.0 1.979406
61210.0 1.979257
61220.0 1.978995
61230.0 1.978988
61240.0 1.978803
61250.0 1.978793
61260.0 1.978422
61270.0 1.978424
61280.0 1.978826
61290.0 1.978693
61300.0 1.978563
61310.0 1.978334
61320.0 1.978975
61330.0 1.979148
61340.0 1.979345
61350.0 1.978984
61360.0 1.978948
61370.0 1.979009
61380.0 1.978856
61390.0 1.978739
61400.0 1.978619
61410.0 1.978474
61420.0 1.978305
61430.0 1.978429
61440.0 1.978329
61450.0 1.978235
61460.0 1.978128
61470.0 1.978068
61480.0 1.977946
61490.0 1.977983
61500.0 1.978108
61510.0 1.978069
61520.0 1.977857
61530.0 1.977819
61540.0 1.977506
61550.0 1.977240
61560.0 1.977085
61570.0 1.977054
61580.0 1.977766
61590.0 1.978557
61600.0 1.978574
61610.0 1.978726
61620.0 1.978692
61630.0 1.978506
61640.0 1.978507
61650.0 1.978395
61660.0 1.978355
61670.0 1.978392
61680.0 1.978381
61690.0 1.978385
61700.0 1.978254
61710.0 1.978417
61720.0 1.978036
61730.0 1.977922
61740.0 1.977924
61750.0 1.977696
61760.0 1.977543
61770.0 1.978112
61780.0 1.978059
61790.0 1.978000
61800.0 1.977775
61810.0 1.978036
61820.0 1.978542
61830.0 1.978609
61840.0 1.979053
61850.0 1.978861
61860.0 1.979160
61870.0 1.979011
61880.0 1.978962
61890.0 1.979016
61900.0 1.978848
61910.0 1.978676
61920.0 1.978632
61930.0 1.978572
61940.0 1.978440
61950.0 1.978377
61960.0 1.978250
61970.0 1.978121
61980.0 1.977813
61990.0 1.977785
62000.0 1.977599
62010.0 1.977394
62020.0 1.977381
62030.0 1.977368
62040.0 1.977410
62050.0 1.977116
62060.0 1.978048
62070.0 1.978074
62080.0 1.977877
62090.0 1.977858
62100.0 1.977863
62110.0 1.977811
62120.0 1.977785
62130.0 1.977696
62140.0 1.977554
62150.0 1.977463
62160.0 1.977339
62170.0 1.977156
62180.0 1.977308
62190.0 1.977546
62200.0 1.977570
62210.0 1.977588
62220.0 1.977695
62230.0 1.977654
62240.0 1.977482
62250.0 1.977392
62260.0 1.977257
62270.0 1.977124
62280.0 1.976882
62290.0 1.976709
62300.0 1.976751
62310.0 1.977350
62320.0 1.977581
62330.0 1.977678
62340.0 1.977390
62350.0 1.977274
62360.0 1.977423
62370.0 1.977361
62380.0 1.977247
62390.0 1.977012
62400.0 1.976967
62410.0 1.976762
62420.0 1.976727
62430.0 1.976527
62440.0 1.976309
62450.0 1.976234
62460.0 1.976109
62470.0 1.977566
62480.0 1.977931
62490.0 1.977823
62500.0 1.977566
62510.0 1.977304
62520.0 1.978063
62530.0 1.978104
62540.0 1.977972
62550.0 1.978041
62560.0 1.977890
62570.0 1.977756
62580.0 1.977706
62590.0 1.977639
62600.0 1.977585
62610.0 1.977883
62620.0 1.977619
62630.0 1.977556
62640.0 1.977522
62650.0 1.977409
62660.0 1.977313
62670.0 1.977143
62680.0 1.976873
62690.0 1.976892
62700.0 1.976806
62710.0 1.976622
62720.0 1.976832
62730.0 1.976673
62740.0 1.976814
62750.0 1.976633
62760.0 1.976484
62770.0 1.976175
62780.0 1.977709
62790.0 1.978424
62800.0 1.978351
62810.0 1.978224
62820.0 1.978194
62830.0 1.978124
62840.0 1.978562
62850.0 1.979829
62860.0 1.980007
62870.0 1.980014
62880.0 1.979929
62890.0 1.979671
62900.0 1.979658
62910.0 1.979378
62920.0 1.979380
62930.0 1.979711
62940.0 1.980163
62950.0 1.980231
62960.0 1.980130
62970.0 1.979986
62980.0 1.979895
62990.0 1.979824
63000.0 1.979561
63010.0 1.979377
63020.0 1.979068
63030.0 1.978808
63040.0 1.978625
63050.0 1.978492
63060.0 1.978440
63070.0 1.978377
63080.0 1.978117
63090.0 1.978046
63100.0 1.977904
63110.0 1.977770
63120.0 1.977675
63130.0 1.977706
63140.0 1.977746
63150.0 1.977491
63160.0 1.977507
63170.0 1.977483
63180.0 1.977820
63190.0 1.977853
63200.0 1.977732
63210.0 1.977595
63220.0 1.977328
63230.0 1.977116
63240.0 1.977105
63250.0 1.977180
63260.0 1.977371
63270.0 1.977381
63280.0 1.977215
63290.0 1.977161
63300.0 1.977078
63310.0 1.977612
63320.0 1.977325
63330.0 1.977270
63340.0 1.977272
63350.0 1.977254
63360.0 1.977021
63370.0 1.976764
63380.0 1.976622
63390.0 1.976595
63400.0 1.976542
63410.0 1.976515
63420.0 1.976315
63430.0 1.976243
63440.0 1.976210
63450.0 1.976152
63460.0 1.976025
63470.0 1.975845
63480.0 1.975837
63490.0 1.975741
63500.0 1.976109
63510.0 1.976104
63520.0 1.975968
63530.0 1.976018
63540.0 1.975942
63550.0 1.975750
63560.0 1.975644
63570.0 1.975532
63580.0 1.975440
63590.0 1.975361
63600.0 1.975320
63610.0 1.975287
63620.0 1.975136
63630.0 1.975300
63640.0 1.976139
63650.0 1.976484
63660.0 1.977786
63670.0 1.978392
63680.0 1.978195
63690.0 1.978253
63700.0 1.978212
63710.0 1.978171
63720.0 1.978208
63730.0 1.977936
63740.0 1.977938
63750.0 1.977848
63760.0 1.978440
63770.0 1.978311
63780.0 1.978379
63790.0 1.978365
63800.0 1.978428
63810.0 1.978840
63820.0 1.978666
63830.0 1.978922
63840.0 1.978936
63850.0 1.978878
63860.0 1.978516
63870.0 1.979203
63880.0 1.979861
63890.0 1.979570
63900.0 1.979289
63910.0 1.979290
63920.0 1.979160
63930.0 1.979038
63940.0 1.978995
63950.0 1.978975
63960.0 1.978827
63970.0 1.978780
63980.0 1.978804
63990.0 1.978612
64000.0 1.978405
64010.0 1.978269
64020.0 1.978123
64030.0 1.977841
64040.0 1.978645
64050.0 1.978518
64060.0 1.978403
64070.0 1.978259
64080.0 1.978249
64090.0 1.978515
64100.0 1.978475
64110.0 1.978511
64120.0 1.978480
64130.0 1.978392
64140.0 1.978376
64150.0 1.978381
64160.0 1.978286
64170.0 1.978250
64180.0 1.978140
64190.0 1.978265
64200.0 1.978102
64210.0 1.978003
64220.0 1.977868
64230.0 1.977739
64240.0 1.977740
64250.0 1.977687
64260.0 1.977481
64270.0 1.977334
64280.0 1.977041
64290.0 1.976981
64300.0 1.976912
64310.0 1.976880
64320.0 1.977097
64330.0 1.976874
64340.0 1.976959
64350.0 1.976779
64360.0 1.976707
64370.0 1.976430
64380.0 1.976378
64390.0 1.976388
64400.0 1.976326
64410.0 1.976197
64420.0 1.975998
64430.0 1.975936
64440.0 1.976005
64450.0 1.976128
64460.0 1.976119
64470.0 1.975841
64480.0 1.975632
64490.0 1.975523
64500.0 1.975298
64510.0 1.975257
64520.0 1.975078
64530.0 1.975751
64540.0 1.976679
64550.0 1.976503
64560.0 1.976355
64570.0 1.976194
64580.0 1.976089
64590.0 1.976103
64600.0 1.975962
64610.0 1.975792
64620.0 1.975820
64630.0 1.976127
64640.0 1.975990
64650.0 1.975939
64660.0 1.976063
64670.0 1.975871
64680.0 1.976881
64690.0 1.976911
64700.0 1.976563
64710.0 1.976386
64720.0 1.976126
64730.0 1.976491
64740.0 1.976323
64750.0 1.976297
64760.0 1.976067
64770.0 1.976067
64780.0 1.976187
64790.0 1.975965
64800.0 1.976035
64810.0 1.975863
64820.0 1.975721
64830.0 1.975439
64840.0 1.975369
64850.0 1.975449
64860.0 1.975359
64870.0 1.975099
64880.0 1.975576
64890.0 1.976198
64900.0 1.976367
64910.0 1.976387
64920.0 1.976117
64930.0 1.976000
64940.0 1.975810
64950.0 1.975624
64960.0 1.975500
64970.0 1.975394
64980.0 1.975268
64990.0 1.975157
65000.0 1.975044
65010.0 1.975183
65020.0 1.975196
65030.0 1.975933
65040.0 1.976324
65050.0 1.976124
65060.0 1.976036
65070.0 1.975971
65080.0 1.975865
65090.0 1.975906
65100.0 1.975885
65110.0 1.975729
65120.0 1.975556
65130.0 1.975511
65140.0 1.975233
65150.0 1.975245
65160.0 1.975168
65170.0 1.975524
65180.0 1.975961
65190.0 1.976308
65200.0 1.976095
65210.0 1.975994
65220.0 1.976080
65230.0 1.976117
65240.0 1.975994
65250.0 1.975506
65260.0 1.975269
65270.0 1.975529
65280.0 1.976720
65290.0 1.976707
65300.0 1.976557
65310.0 1.976279
65320.0 1.976117
65330.0 1.976152
65340.0 1.976380
65350.0 1.976312
65360.0 1.976175
65370.0 1.976144
65380.0 1.976048
65390.0 1.975924
65400.0 1.975914
65410.0 1.975743
65420.0 1.975504
65430.0 1.975316
65440.0 1.976245
65450.0 1.976533
65460.0 1.976791
65470.0 1.977214
65480.0 1.977102
65490.0 1.977008
65500.0 1.976943
65510.0 1.976793
65520.0 1.977130
65530.0 1.977010
65540.0 1.976792
65550.0 1.976825
65560.0 1.976762
65570.0 1.976533
65580.0 1.976347
65590.0 1.976330
65600.0 1.976294
65610.0 1.976198
65620.0 1.976253
65630.0 1.976496
65640.0 1.976295
65650.0 1.976573
65660.0 1.976506
65670.0 1.976400
65680.0 1.976243
65690.0 1.976295
65700.0 1.976019
65710.0 1.977753
65720.0 1.979628
65730.0 1.979985
65740.0 1.980132
65750.0 1.980453
65760.0 1.980109
65770.0 1.979823
65780.0 1.979731
65790.0 1.979590
65800.0 1.979508
65810.0 1.979532
65820.0 1.979616
65830.0 1.979453
65840.0 1.979362
65850.0 1.979883
65860.0 1.981089
65870.0 1.981079
65880.0 1.980782
65890.0 1.981146
65900.0 1.981071
65910.0 1.981043
65920.0 1.980940
65930.0 1.980810
65940.0 1.980705
65950.0 1.980677
65960.0 1.980551
65970.0 1.980365
65980.0 1.980278
65990.0 1.980228
66000.0 1.980105
66010.0 1.980097
66020.0 1.979894
66030.0 1.979610
66040.0 1.979403
66050.0 1.979620
66060.0 1.979440
66070.0 1.979344
66080.0 1.979252
66090.0 1.979179
66100.0 1.978999
66110.0 1.978891
66120.0 1.979426
66130.0 1.979231
66140.0 1.979135
66150.0 1.978964
66160.0 1.979598
66170.0 1.980085
66180.0 1.980370
66190.0 1.981353
66200.0 1.982471
66210.0 1.982522
66220.0 1.982566
66230.0 1.982811
66240.0 1.983196
66250.0 1.983250
66260.0 1.983051
66270.0 1.982957
66280.0 1.983090
66290.0 1.983105
66300.0 1.983125
66310.0 1.983291
66320.0 1.983169
66330.0 1.983080
66340.0 1.983080
66350.0 1.982886
66360.0 1.982708
66370.0 1.982669
66380.0 1.982441
66390.0 1.982557
66400.0 1.982630
66410.0 1.982391
66420.0 1.982252
66430.0 1.982176
66440.0 1.982137
66450.0 1.982188
66460.0 1.982012
66470.0 1.981956
66480.0 1.981911
66490.0 1.981842
66500.0 1.981459
66510.0 1.981364
66520.0 1.981144
66530.0 1.980985
66540.0 1.980658
66550.0 1.980652
66560.0 1.980498
66570.0 1.980564
66580.0 1.981807
66590.0 1.981726
66600.0 1.981883
66610.0 1.981728
66620.0 1.981569
66630.0 1.981354
66640.0 1.981059
66650.0 1.980839
66660.0 1.980776
66670.0 1.980573
66680.0 1.980589
66690.0 1.980877
66700.0 1.980810
66710.0 1.980847
66720.0 1.980880
66730.0 1.980677
66740.0 1.980592
66750.0 1.980367
66760.0 1.980310
66770.0 1.980255
66780.0 1.980076
66790.0 1.979922
66800.0 1.979669
66810.0 1.979646
66820.0 1.979602
66830.0 1.979548
66840.0 1.979563
66850.0 1.979598
66860.0 1.979430
66870.0 1.979496
66880.0 1.979300
66890.0 1.979213
66900.0 1.979109
66910.0 1.979437
66920.0 1.979574
66930.0 1.979780
66940.0 1.980560
66950.0 1.980708
66960.0 1.980681
66970.0 1.980892
66980.0 1.980760
66990.0 1.980569
67000.0 1.980367
67010.0 1.980404
67020.0 1.980551
67030.0 1.980336
67040.0 1.980342
67050.0 1.980882
67060.0 1.980813
67070.0 1.980911
67080.0 1.980797
67090.0 1.980700
67100.0 1.980670
67110.0 1.980577
67120.0 1.980471
67130.0 1.980163
67140.0 1.980115
67150.0 1.979919
67160.0 1.979792
67170.0 1.979756
67180.0 1.979575
67190.0 1.979346
67200.0 1.979350
67210.0 1.979171
67220.0 1.979324
67230.0 1.979257
67240.0 1.979269
67250.0 1.979149
67260.0 1.979014
67270.0 1.978893
67280.0 1.978734
67290.0 1.978556
67300.0 1.978205
67310.0 1.978052
67320.0 1.978128
67330.0 1.977977
67340.0 1.978053
67350.0 1.978145
67360.0 1.978032
67370.0 1.978010
67380.0 1.977840
67390.0 1.977869
67400.0 1.977708
67410.0 1.977743
67420.0 1.977671
67430.0 1.977445
67440.0 1.977340
67450.0 1.977009
67460.0 1.977306
67470.0 1.977332
67480.0 1.977348
67490.0 1.977501
67500.0 1.977434
67510.0 1.977494
67520.0 1.977414
67530.0 1.977314
67540.0 1.977275
67550.0 1.977130
67560.0 1.977092
67570.0 1.976941
67580.0 1.976735
67590.0 1.976982
67600.0 1.976925
67610.0 1.976594
67620.0 1.976995
67630.0 1.976953
67640.0 1.977278
67650.0 1.977277
67660.0 1.977027
67670.0 1.976822
67680.0 1.976727
67690.0 1.976862
67700.0 1.977013
67710.0 1.976857
67720.0 1.976767
67730.0 1.976615
67740.0 1.976645
67750.0 1.976309
67760.0 1.976260
67770.0 1.976142
67780.0 1.976201
67790.0 1.976022
67800.0 1.976046
67810.0 1.975963
67820.0 1.975778
67830.0 1.975820
67840.0 1.975673
67850.0 1.975700
67860.0 1.975705
67870.0 1.975500
67880.0 1.975273
67890.0 1.975375
67900.0 1.975059
67910.0 1.974956
67920.0 1.975018
67930.0 1.974986
67940.0 1.974929
67950.0 1.975106
67960.0 1.975012
67970.0 1.974955
67980.0 1.974856
67990.0 1.974841
68000.0 1.974686
68010.0 1.974459
68020.0 1.974389
68030.0 1.974389
68040.0 1.974337
68050.0 1.974274
68060.0 1.974079
68070.0 1.973977
68080.0 1.973895
68090.0 1.973768
68100.0 1.973696
68110.0 1.973750
68120.0 1.973636
68130.0 1.973756
68140.0 1.973629
68150.0 1.973485
68160.0 1.973463
68170.0 1.973472
68180.0 1.973239
68190.0 1.973054
68200.0 1.972942
68210.0 1.973056
68220.0 1.973024
68230.0 1.973703
68240.0 1.973635
68250.0 1.973507
68260.0 1.973387
68270.0 1.973348
68280.0 1.973293
68290.0 1.973476
68300.0 1.973737
68310.0 1.973579
68320.0 1.973762
68330.0 1.973484
68340.0 1.973326
68350.0 1.973317
68360.0 1.973245
68370.0 1.973092
68380.0 1.973046
68390.0 1.972955
68400.0 1.972888
68410.0 1.972929
68420.0 1.972979
68430.0 1.972727
68440.0 1.972792
68450.0 1.972679
68460.0 1.972590
68470.0 1.973181
68480.0 1.973472
68490.0 1.973395
68500.0 1.973274
68510.0 1.973273
68520.0 1.973240
68530.0 1.973033
68540.0 1.973006
68550.0 1.972808
68560.0 1.972772
68570.0 1.972679
68580.0 1.972395
68590.0 1.972523
68600.0 1.972505
68610.0 1.972651
68620.0 1.972602
68630.0 1.972476
68640.0 1.972291
68650.0 1.971998
68660.0 1.971733
68670.0 1.971460
68680.0 1.973149
68690.0 1.975487
68700.0 1.976595
68710.0 1.976414
68720.0 1.976268
68730.0 1.976652
68740.0 1.976544
68750.0 1.977280
68760.0 1.979303
68770.0 1.980496
68780.0 1.980259
68790.0 1.980090
68800.0 1.979981
68810.0 1.979875
68820.0 1.979803
68830.0 1.979737
68840.0 1.979539
68850.0 1.979699
68860.0 1.979723
68870.0 1.979714
68880.0 1.979647
68890.0 1.979621
68900.0 1.979337
68910.0 1.979179
68920.0 1.978893
68930.0 1.978802
68940.0 1.978689
68950.0 1.978598
68960.0 1.978684
68970.0 1.978517
68980.0 1.978450
68990.0 1.978265
69000.0 1.978497
69010.0 1.978342
69020.0 1.978157
69030.0 1.978126
69040.0 1.977924
69050.0 1.977805
69060.0 1.977652
69070.0 1.977622
69080.0 1.977581
69090.0 1.977520
69100.0 1.977683
69110.0 1.977516
69120.0 1.977458
69130.0 1.977384
69140.0 1.977397
69150.0 1.977256
69160.0 1.977796
69170.0 1.977695
69180.0 1.978022
69190.0 1.978302
69200.0 1.978095
69210.0 1.978249
69220.0 1.978034
69230.0 1.977981
69240.0 1.977907
69250.0 1.977755
69260.0 1.977507
69270.0 1.977503
69280.0 1.977342
69290.0 1.977247
69300.0 1.977122
69310.0 1.977025
69320.0 1.976897
69330.0 1.976781
69340.0 1.976473
69350.0 1.976382
69360.0 1.976246
69370.0 1.976124
69380.0 1.975904
69390.0 1.975752
69400.0 1.975498
69410.0 1.975497
69420.0 1.975198
69430.0 1.975052
69440.0 1.974878
69450.0 1.974849
69460.0 1.974815
69470.0 1.974975
69480.0 1.974923
69490.0 1.974843
69500.0 1.974698
69510.0 1.974535
69520.0 1.974440
69530.0 1.974339
69540.0 1.974177
69550.0 1.974152
69560.0 1.974085
69570.0 1.974146
69580.0 1.974037
69590.0 1.973887
69600.0 1.973775
69610.0 1.973675
69620.0 1.973957
69630.0 1.973941
69640.0 1.973788
69650.0 1.973698
69660.0 1.973897
69670.0 1.973787
69680.0 1.973863
69690.0 1.973895
69700.0 1.974075
69710.0 1.973989
69720.0 1.973756
69730.0 1.973722
69740.0 1.973929
69750.0 1.973887
69760.0 1.973787
69770.0 1.974018
69780.0 1.974039
69790.0 1.974048
69800.0 1.974030
69810.0 1.973957
69820.0 1.974429
69830.0 1.974187
69840.0 1.974005
69850.0 1.973876
69860.0 1.973825
69870.0 1.973683
69880.0 1.973622
69890.0 1.973595
69900.0 1.973763
69910.0 1.973773
69920.0 1.973603
69930.0 1.973531
69940.0 1.973750
69950.0 1.973596
69960.0 1.973397
69970.0 1.973321
69980.0 1.973210
69990.0 1.972972
70000.0 1.972917
70010.0 1.972732
70020.0 1.972583
70030.0 1.972407
70040.0 1.972359
70050.0 1.972171
70060.0 1.972289
70070.0 1.973410
70080.0 1.973215
70090.0 1.972977
70100.0 1.973169
70110.0 1.973033
70120.0 1.973033
70130.0 1.973026
70140.0 1.972892
70150.0 1.972791
70160.0 1.972717
70170.0 1.972839
70180.0 1.972703
70190.0 1.972759
70200.0 1.972658
70210.0 1.972970
70220.0 1.973680
70230.0 1.974783
70240.0 1.975136
70250.0 1.974891
70260.0 1.975065
70270.0 1.974963
70280.0 1.974813
70290.0 1.975067
70300.0 1.975132
70310.0 1.975054
70320.0 1.975295
70330.0 1.975194
70340.0 1.975037
70350.0 1.974958
70360.0 1.975036
70370.0 1.974840
70380.0 1.974643
70390.0 1.974698
70400.0 1.974552
70410.0 1.974478
70420.0 1.974286
70430.0 1.974148
70440.0 1.974067
70450.0 1.973982
70460.0 1.973595
70470.0 1.973704
70480.0 1.973507
70490.0 1.973427
70500.0 1.973580
70510.0 1.973546
70520.0 1.974050
70530.0 1.973905
70540.0 1.973973
70550.0 1.973892
70560.0 1.973816
70570.0 1.973576
70580.0 1.974080
70590.0 1.974881
70600.0 1.974802
70610.0 1.974751
70620.0 1.974740
70630.0 1.974691
70640.0 1.974537
70650.0 1.974482
70660.0 1.974382
70670.0 1.974675
70680.0 1.974605
70690.0 1.974647
70700.0 1.975026
70710.0 1.974879
70720.0 1.974868
70730.0 1.974757
70740.0 1.974747
70750.0 1.974711
70760.0 1.974616
70770.0 1.974566
70780.0 1.975060
70790.0 1.974987
70800.0 1.974866
70810.0 1.974770
70820.0 1.974798
70830.0 1.974736
70840.0 1.974591
70850.0 1.974820
70860.0 1.974667
70870.0 1.974574
70880.0 1.974553
70890.0 1.974354
70900.0 1.974454
70910.0 1.974504
70920.0 1.974870
70930.0 1.974743
70940.0 1.974505
70950.0 1.974258
70960.0 1.974208
70970.0 1.974186
70980.0 1.974083
70990.0 1.974045
71000.0 1.974090
71010.0 1.973920
71020.0 1.973793
71030.0 1.973721
71040.0 1.973567
71050.0 1.973559
71060.0 1.973407
71070.0 1.973318
71080.0 1.973153
71090.0 1.973074
71100.0 1.972949
71110.0 1.972740
71120.0 1.972843
71130.0 1.972675
71140.0 1.972643
71150.0 1.972442
71160.0 1.972252
71170.0 1.972172
71180.0 1.972046
71190.0 1.971865
71200.0 1.971885
71210.0 1.971961
71220.0 1.971778
71230.0 1.971610
71240.0 1.971714
71250.0 1.971731
71260.0 1.971699
71270.0 1.971590
71280.0 1.971468
71290.0 1.971449
71300.0 1.971312
71310.0 1.971383
71320.0 1.971291
71330.0 1.971225
71340.0 1.971051
71350.0 1.971308
71360.0 1.971154
71370.0 1.971058
71380.0 1.970905
71390.0 1.970905
71400.0 1.970816
71410.0 1.970885
71420.0 1.970589
71430.0 1.970362
71440.0 1.970282
71450.0 1.970216
71460.0 1.970310
71470.0 1.970089
71480.0 1.969958
71490.0 1.969839
71500.0 1.969827
71510.0 1.970192
71520.0 1.970211
71530.0 1.969983
71540.0 1.969988
71550.0 1.970072
71560.0 1.969856
71570.0 1.969865
71580.0 1.969709
71590.0 1.970211
71600.0 1.970089
71610.0 1.970227
71620.0 1.970137
71630.0 1.970029
71640.0 1.969946
71650.0 1.969844
71660.0 1.970829
71670.0 1.971112
71680.0 1.970963
71690.0 1.970921
71700.0 1.970877
71710.0 1.970839
71720.0 1.970743
71730.0 1.970593
71740.0 1.970601
71750.0 1.970512
71760.0 1.970361
71770.0 1.970294
71780.0 1.970391
71790.0 1.970250
71800.0 1.970253
71810.0 1.970293
71820.0 1.970342
71830.0 1.970179
71840.0 1.970044
71850.0 1.969839
71860.0 1.969962
71870.0 1.969899
71880.0 1.969850
71890.0 1.969796
71900.0 1.969617
71910.0 1.969507
71920.0 1.969320
71930.0 1.969282
71940.0 1.970105
71950.0 1.970544
71960.0 1.970327
71970.0 1.970382
71980.0 1.970903
71990.0 1.972305
72000.0 1.972437
72010.0 1.972263
72020.0 1.972086
72030.0 1.972068
72040.0 1.972375
72050.0 1.972463
72060.0 1.972445
72070.0 1.972400
72080.0 1.972464
72090.0 1.972339
72100.0 1.972396
72110.0 1.972341
72120.0 1.972435
72130.0 1.972835
72140.0 1.972965
72150.0 1.972905
72160.0 1.972798
72170.0 1.972657
72180.0 1.972545
72190.0 1.972650
72200.0 1.973906
72210.0 1.975116
72220.0 1.975333
72230.0 1.975248
72240.0 1.975078
72250.0 1.975016
72260.0 1.974915
72270.0 1.974717
72280.0 1.974604
72290.0 1.974496
72300.0 1.974343
72310.0 1.974173
72320.0 1.974065
72330.0 1.974226
72340.0 1.974424
72350.0 1.974916
72360.0 1.974999
72370.0 1.974778
72380.0 1.974541
72390.0 1.974511
72400.0 1.974932
72410.0 1.974970
72420.0 1.975011
72430.0 1.974991
72440.0 1.975222
72450.0 1.975246
72460.0 1.975317
72470.0 1.975315
72480.0 1.975318
72490.0 1.975450
72500.0 1.975278
72510.0 1.975268
72520.0 1.975455
72530.0 1.975326
72540.0 1.975083
72550.0 1.975095
72560.0 1.974972
72570.0 1.974996
72580.0 1.974848
72590.0 1.974831
72600.0 1.974745
72610.0 1.974614
72620.0 1.974401
72630.0 1.975839
72640.0 1.978758
72650.0 1.982653
72660.0 1.986191
72670.0 1.990221
72680.0 1.993577
72690.0 1.996285
72700.0 1.998199
72710.0 1.998227
72720.0 1.998054
72730.0 1.997922
72740.0 1.997790
72750.0 1.998282
72760.0 1.999672
72770.0 1.999538
72780.0 1.999495
72790.0 1.999562
72800.0 2.000205
72810.0 2.000795
72820.0 2.001211
72830.0 2.001205
72840.0 2.001239
72850.0 2.001459
72860.0 2.001887
72870.0 2.001742
72880.0 2.001902
72890.0 2.002478
72900.0 2.002468
72910.0 2.002322
72920.0 2.002218
72930.0 2.002118
72940.0 2.002110
72950.0 2.001927
72960.0 2.002409
72970.0 2.002313
72980.0 2.002175
72990.0 2.001958
73000.0 2.001843
73010.0 2.002176
73020.0 2.002132
73030.0 2.002192
73040.0 2.002053
73050.0 2.002501
73060.0 2.002545
73070.0 2.002425
73080.0 2.002883
73090.0 2.002936
73100.0 2.003160
73110.0 2.003308
73120.0 2.003102
73130.0 2.003069
73140.0 2.003036
73150.0 2.002974
73160.0 2.002814
73170.0 2.002898
73180.0 2.003112
73190.0 2.003171
73200.0 2.003606
73210.0 2.003584
73220.0 2.003298
73230.0 2.003128
73240.0 2.003119
73250.0 2.002973
73260.0 2.002676
73270.0 2.002698
73280.0 2.002562
73290.0 2.002466
73300.0 2.002279
73310.0 2.002140
73320.0 2.002015
73330.0 2.002353
73340.0 2.003389
73350.0 2.003580
73360.0 2.004191
73370.0 2.004051
73380.0 2.003989
73390.0 2.004000
73400.0 2.003772
73410.0 2.003646
73420.0 2.003504
73430.0 2.003350
73440.0 2.003267
73450.0 2.004065
73460.0 2.005262
73470.0 2.005280
73480.0 2.005538
73490.0 2.006498
73500.0 2.006653
73510.0 2.006419
73520.0 2.006889
73530.0 2.006762
73540.0 2.006638
73550.0 2.006569
73560.0 2.006534
73570.0 2.006391
73580.0 2.006208
73590.0 2.006033
73600.0 2.006002
73610.0 2.006002
73620.0 2.005932
73630.0 2.005871
73640.0 2.005666
73650.0 2.005625
73660.0 2.005406
73670.0 2.005233
73680.0 2.005222
73690.0 2.004992
73700.0 2.004903
73710.0 2.004621
73720.0 2.004631
73730.0 2.004822
73740.0 2.004511
73750.0 2.004378
73760.0 2.004299
73770.0 2.004070
73780.0 2.004142
73790.0 2.004670
73800.0 2.004611
73810.0 2.004643
73820.0 2.004501
73830.0 2.004626
73840.0 2.004531
73850.0 2.004500
73860.0 2.004315
73870.0 2.004214
73880.0 2.004078
73890.0 2.003915
73900.0 2.003829
73910.0 2.003707
73920.0 2.003600
73930.0 2.003475
73940.0 2.003450
73950.0 2.003368
73960.0 2.003205
73970.0 2.003257
73980.0 2.003258
73990.0 2.003070
74000.0 2.003028
74010.0 2.002845
74020.0 2.002565
74030.0 2.002410
74040.0 2.002204
74050.0 2.002085
74060.0 2.002126
74070.0 2.002021
74080.0 2.001983
74090.0 2.001853
74100.0 2.001786
74110.0 2.001666
74120.0 2.001402
74130.0 2.001370
74140.0 2.001649
74150.0 2.002414
74160.0 2.002202
74170.0 2.002176
74180.0 2.001826
74190.0 2.001831
74200.0 2.001815
74210.0 2.001665
74220.0 2.001506
74230.0 2.001709
74240.0 2.001771
74250.0 2.001652
74260.0 2.001566
74270.0 2.001551
74280.0 2.001472
74290.0 2.001359
74300.0 2.001662
74310.0 2.001673
74320.0 2.001549
74330.0 2.001457
74340.0 2.001323
74350.0 2.001605
74360.0 2.001485
74370.0 2.001437
74380.0 2.001477
74390.0 2.001393
74400.0 2.001247
74410.0 2.001217
74420.0 2.001089
74430.0 2.001088
74440.0 2.000980
74450.0 2.000997
74460.0 2.001406
74470.0 2.001490
74480.0 2.001447
74490.0 2.001371
74500.0 2.001272
74510.0 2.001288
74520.0 2.001239
74530.0 2.001295
74540.0 2.001178
74550.0 2.000899
74560.0 2.001101
74570.0 2.001192
74580.0 2.001016
74590.0 2.000862
74600.0 2.000791
74610.0 2.000519
74620.0 2.000355
74630.0 2.000203
74640.0 2.000116
74650.0 2.000034
74660.0 1.999946
74670.0 1.999867
74680.0 2.000030
74690.0 1.999912
74700.0 1.999853
74710.0 1.999740
74720.0 1.999785
74730.0 1.999951
74740.0 1.999841
74750.0 1.999592
74760.0 1.999505
74770.0 1.999322
74780.0 1.999250
74790.0 1.999627
74800.0 1.999546
74810.0 1.999228
74820.0 1.999116
74830.0 1.999050
74840.0 1.999089
74850.0 1.998934
74860.0 1.998970
74870.0 1.999027
74880.0 1.999240
74890.0 1.999373
74900.0 1.999260
74910.0 1.999079
74920.0 1.999156
74930.0 1.999075
74940.0 1.999288
74950.0 1.999127
74960.0 1.999668
74970.0 1.999568
74980.0 1.999464
74990.0 1.999354
75000.0 1.999318
75010.0 1.999252
75020.0 1.999167
75030.0 1.999275
75040.0 1.999707
75050.0 1.999488
75060.0 1.999355
75070.0 1.999212
75080.0 1.999064
75090.0 1.999350
75100.0 1.999671
75110.0 1.999552
75120.0 1.999432
75130.0 1.999378
75140.0 1.999360
75150.0 1.999143
75160.0 1.998964
75170.0 1.998981
75180.0 1.999088
75190.0 1.998970
75200.0 1.998821
75210.0 1.998758
75220.0 1.999086
75230.0 1.998942
75240.0 1.999040
75250.0 1.998761
75260.0 1.999365
75270.0 1.999689
75280.0 1.999488
75290.0 1.999467
75300.0 1.999357
75310.0 1.999238
75320.0 1.999255
75330.0 1.999140
75340.0 1.999241
75350.0 1.999206
75360.0 1.999033
75370.0 1.999010
75380.0 1.998990
75390.0 1.998759
75400.0 1.998688
75410.0 1.998453
75420.0 1.998365
75430.0 1.998289
75440.0 1.998193
75450.0 1.998438
75460.0 1.998352
75470.0 1.998288
75480.0 1.998076
75490.0 1.997894
75500.0 1.997794
75510.0 1.997948
75520.0 1.998234
75530.0 1.998520
75540.0 1.998492
75550.0 1.999612
75560.0 1.999433
75570.0 1.999394
75580.0 1.999461
75590.0 1.999381
75600.0 1.999330
75610.0 1.999152
75620.0 1.999194
75630.0 1.999039
75640.0 1.998917
75650.0 1.998874
75660.0 1.998709
75670.0 1.998690
75680.0 1.998667
75690.0 1.998866
75700.0 1.998872
75710.0 1.998761
75720.0 1.998686
75730.0 1.998554
75740.0 1.998575
75750.0 1.998397
75760.0 1.998640
75770.0 1.998649
75780.0 1.998618
75790.0 1.998530
75800.0 1.998548
75810.0 1.998491
75820.0 1.998372
75830.0 1.998102
75840.0 1.997930
75850.0 1.997749
75860.0 1.997759
75870.0 1.997741
75880.0 1.997528
75890.0 1.997449
75900.0 1.997356
75910.0 1.997495
75920.0 1.997314
75930.0 1.997130
75940.0 1.997466
75950.0 1.997664
75960.0 1.997782
75970.0 1.997813
75980.0 1.997622
75990.0 1.997519
76000.0 1.997351
76010.0 1.997121
76020.0 1.997698
76030.0 1.997730
76040.0 1.997657
76050.0 1.997843
76060.0 1.997769
76070.0 1.997631
76080.0 1.997513
76090.0 1.997449
76100.0 1.997296
76110.0 1.997029
76120.0 1.997545
76130.0 1.997555
76140.0 1.997380
76150.0 1.997218
76160.0 1.997175
76170.0 1.997069
76180.0 1.997011
76190.0 1.996779
76200.0 1.996740
76210.0 1.996575
76220.0 1.996520
76230.0 1.996462
76240.0 1.996386
76250.0 1.996254
76260.0 1.996318
76270.0 1.996245
76280.0 1.996105
76290.0 1.996023
76300.0 1.995934
76310.0 1.995813
76320.0 1.995727
76330.0 1.995598
76340.0 1.995579
76350.0 1.996098
76360.0 1.996619
76370.0 1.996810
76380.0 1.996720
76390.0 1.996611
76400.0 1.996440
76410.0 1.996295
76420.0 1.996253
76430.0 1.996253
76440.0 1.996079
76450.0 1.996034
76460.0 1.995932
76470.0 1.995753
76480.0 1.995888
76490.0 1.995784
76500.0 1.995527
76510.0 1.995474
76520.0 1.995237
76530.0 1.995255
76540.0 1.995176
76550.0 1.995318
76560.0 1.995547
76570.0 1.996818
76580.0 1.996549
76590.0 1.996389
76600.0 1.996326
76610.0 1.996160
76620.0 1.996156
76630.0 1.995962
76640.0 1.995871
76650.0 1.995856
76660.0 1.995488
76670.0 1.995618
76680.0 1.995546
76690.0 1.995546
76700.0 1.995491
76710.0 1.995338
76720.0 1.995775
76730.0 1.995870
76740.0 1.995636
76750.0 1.995564
76760.0 1.995649
76770.0 1.995737
76780.0 1.995720
76790.0 1.995733
76800.0 1.995716
76810.0 1.995777
76820.0 1.995757
76830.0 1.995801
76840.0 1.995638
76850.0 1.995548
76860.0 1.995828
76870.0 1.995606
76880.0 1.995530
76890.0 1.995412
76900.0 1.995522
76910.0 1.995630
76920.0 1.995827
76930.0 1.995749
76940.0 1.995844
76950.0 1.995811
76960.0 1.995818
76970.0 1.995860
76980.0 1.995845
76990.0 1.995774
77000.0 1.995736
77010.0 1.995555
77020.0 1.995569
77030.0 1.995749
77040.0 1.995623
77050.0 1.995521
77060.0 1.995391
77070.0 1.995387
77080.0 1.995218
77090.0 1.995395
77100.0 1.995365
77110.0 1.995308
77120.0 1.995095
77130.0 1.995067
77140.0 1.995002
77150.0 1.994949
77160.0 1.994924
77170.0 1.994767
77180.0 1.994830
77190.0 1.994682
77200.0 1.994605
77210.0 1.994572
77220.0 1.994428
77230.0 1.994348
77240.0 1.994318
77250.0 1.994246
77260.0 1.994130
77270.0 1.993955
77280.0 1.994009
77290.0 1.993819
77300.0 1.993650
77310.0 1.993569
77320.0 1.993643
77330.0 1.993828
77340.0 1.993727
77350.0 1.993556
77360.0 1.993459
77370.0 1.993351
77380.0 1.993202
77390.0 1.993117
77400.0 1.993061
77410.0 1.992920
77420.0 1.992745
77430.0 1.992839
77440.0 1.992839
77450.0 1.992789
77460.0 1.992649
77470.0 1.992456
77480.0 1.992202
77490.0 1.992158
77500.0 1.991986
77510.0 1.992085
77520.0 1.991930
77530.0 1.991972
77540.0 1.991936
77550.0 1.991806
77560.0 1.991602
77570.0 1.991419
77580.0 1.991515
77590.0 1.991456
77600.0 1.991260
77610.0 1.991158
77620.0 1.991062
77630.0 1.991146
77640.0 1.991055
77650.0 1.990822
77660.0 1.991371
77670.0 1.991434
77680.0 1.991329
77690.0 1.991233
77700.0 1.991290
77710.0 1.991248
77720.0 1.991103
77730.0 1.991080
77740.0 1.991289
77750.0 1.992134
77760.0 1.992022
77770.0 1.991837
77780.0 1.991683
77790.0 1.991584
77800.0 1.991479
77810.0 1.991370
77820.0 1.991335
77830.0 1.991241
77840.0 1.991212
77850.0 1.991040
77860.0 1.990837
77870.0 1.990724
77880.0 1.990676
77890.0 1.990558
77900.0 1.990755
77910.0 1.990614
77920.0 1.990504
77930.0 1.990488
77940.0 1.990618
77950.0 1.990599
77960.0 1.990414
77970.0 1.990451
77980.0 1.990321
77990.0 1.990318
78000.0 1.990186
78010.0 1.990973
78020.0 1.991437
78030.0 1.992104
78040.0 1.992217
78050.0 1.993154
78060.0 1.993196
78070.0 1.993108
78080.0 1.993218
78090.0 1.992963
78100.0 1.992874
78110.0 1.992680
78120.0 1.992662
78130.0 1.992556
78140.0 1.993067
78150.0 1.992933
78160.0 1.992729
78170.0 1.992572
78180.0 1.993117
78190.0 1.993214
78200.0 1.993141
78210.0 1.993031
78220.0 1.993040
78230.0 1.993033
78240.0 1.992946
78250.0 1.993396
78260.0 1.993661
78270.0 1.993815
78280.0 1.993814
78290.0 1.993696
78300.0 1.993634
78310.0 1.993621
78320.0 1.993360
78330.0 1.993211
78340.0 1.993114
78350.0 1.992946
78360.0 1.992806
78370.0 1.993086
78380.0 1.993088
78390.0 1.992967
78400.0 1.992909
78410.0 1.992780
78420.0 1.992732
78430.0 1.992714
78440.0 1.992587
78450.0 1.992447
78460.0 1.992214
78470.0 1.992212
78480.0 1.992108
78490.0 1.992139
78500.0 1.991970
78510.0 1.992436
78520.0 1.992385
78530.0 1.992108
78540.0 1.991937
78550.0 1.992118
78560.0 1.992183
78570.0 1.992080
78580.0 1.991997
78590.0 1.991884
78600.0 1.991818
78610.0 1.991888
78620.0 1.991892
78630.0 1.991782
78640.0 1.991698
78650.0 1.991632
78660.0 1.991564
78670.0 1.991499
78680.0 1.991384
78690.0 1.991248
78700.0 1.991092
78710.0 1.990846
78720.0 1.990975
78730.0 1.991109
78740.0 1.991352
78750.0 1.991585
78760.0 1.991501
78770.0 1.991331
78780.0 1.991386
78790.0 1.991266
78800.0 1.991085
78810.0 1.991004
78820.0 1.991120
78830.0 1.990979
78840.0 1.991456
78850.0 1.991842
78860.0 1.991674
78870.0 1.991602
78880.0 1.991547
78890.0 1.991481
78900.0 1.992089
78910.0 1.991887
78920.0 1.991833
78930.0 1.991854
78940.0 1.991784
78950.0 1.991764
78960.0 1.991575
78970.0 1.991710
78980.0 1.991489
78990.0 1.991396
79000.0 1.991285
79010.0 1.991052
79020.0 1.991091
79030.0 1.991385
79040.0 1.991352
79050.0 1.991219
79060.0 1.991072
79070.0 1.990876
79080.0 1.990817
79090.0 1.990677
79100.0 1.990577
79110.0 1.990769
79120.0 1.990725
79130.0 1.990601
79140.0 1.990635
79150.0 1.990509
79160.0 1.990451
79170.0 1.990373
79180.0 1.990300
79190.0 1.990255
79200.0 1.990077
79210.0 1.989877
79220.0 1.989943
79230.0 1.989731
79240.0 1.989616
79250.0 1.989483
79260.0 1.989877
79270.0 1.990164
79280.0 1.990101
79290.0 1.990196
79300.0 1.990239
79310.0 1.990138
79320.0 1.990147
79330.0 1.990041
79340.0 1.989855
79350.0 1.990167
79360.0 1.991423
79370.0 1.991705
79380.0 1.991648
79390.0 1.991993
79400.0 1.992826
79410.0 1.993694
79420.0 1.995178
79430.0 1.995752
79440.0 1.995648
79450.0 1.995614
79460.0 1.995641
79470.0 1.995672
79480.0 1.996130
79490.0 1.996031
79500.0 1.996092
79510.0 1.996287
79520.0 1.996173
79530.0 1.996056
79540.0 1.996031
79550.0 1.995988
79560.0 1.995795
79570.0 1.995980
79580.0 1.996024
79590.0 1.996027
79600.0 1.995994
79610.0 1.995930
79620.0 1.996217
79630.0 1.996340
79640.0 1.996316
79650.0 1.996366
79660.0 1.996338
79670.0 1.996212
79680.0 1.995936
79690.0 1.995899
79700.0 1.996042
79710.0 1.996087
79720.0 1.996022
79730.0 1.995833
79740.0 1.995772
79750.0 1.995527
79760.0 1.995489
79770.0 1.995414
79780.0 1.995382
79790.0 1.995198
79800.0 1.995075
79810.0 1.995035
79820.0 1.994984
79830.0 1.995359
79840.0 1.995625
79850.0 1.995564
79860.0 1.995449
79870.0 1.995326
79880.0 1.995369
79890.0 1.995241
79900.0 1.995174
79910.0 1.995104
79920.0 1.995025
79930.0 1.994883
79940.0 1.994812
79950.0 1.994764
79960.0 1.994520
79970.0 1.994429
79980.0 1.994617
79990.0 1.995200
80000.0 1.995255
80010.0 1.995280
80020.0 1.995087
80030.0 1.995203
80040.0 1.995162
80050.0 1.995173
80060.0 1.995332
80070.0 1.995191
80080.0 1.995083
80090.0 1.994992
80100.0 1.994865
80110.0 1.994817
80120.0 1.994681
80130.0 1.995655
80140.0 1.995723
80150.0 1.995629
80160.0 1.995636
80170.0 1.995482
80180.0 1.995356
80190.0 1.995135
80200.0 1.995179
80210.0 1.995125
80220.0 1.995497
80230.0 1.995541
80240.0 1.995287
80250.0 1.995132
80260.0 1.995286
80270.0 1.995175
80280.0 1.995025
80290.0 1.994917
80300.0 1.994782
80310.0 1.994586
80320.0 1.994524
80330.0 1.994761
80340.0 1.994577
80350.0 1.994692
80360.0 1.994648
80370.0 1.995390
80380.0 1.996457
80390.0 1.996733
80400.0 1.996538
80410.0 1.996480
80420.0 1.996702
80430.0 1.996646
80440.0 1.996586
80450.0 1.996523
80460.0 1.996481
80470.0 1.996388
80480.0 1.996431
80490.0 1.996376
80500.0 1.996272
80510.0 1.996128
80520.0 1.995976
80530.0 1.995867
80540.0 1.995917
80550.0 1.996372
80560.0 1.996454
80570.0 1.996397
80580.0 1.996625
80590.0 1.996331
80600.0 1.996372
80610.0 1.996205
80620.0 1.996125
80630.0 1.995967
80640.0 1.996054
80650.0 1.996111
80660.0 1.996081
80670.0 1.996204
80680.0 1.996309
80690.0 1.996089
80700.0 1.995943
80710.0 1.995735
80720.0 1.995969
80730.0 1.995898
80740.0 1.995971
80750.0 1.996073
80760.0 1.996192
80770.0 1.996357
80780.0 1.996377
80790.0 1.996585
80800.0 1.996412
80810.0 1.996346
80820.0 1.996112
80830.0 1.996310
80840.0 1.996199
80850.0 1.996068
80860.0 1.996008
80870.0 1.995873
80880.0 1.995997
80890.0 1.995932
80900.0 1.995684
80910.0 1.995771
80920.0 1.995573
80930.0 1.995539
80940.0 1.995295
80950.0 1.995340
80960.0 1.995239
80970.0 1.995259
80980.0 1.995164
80990.0 1.995069
81000.0 1.994882
81010.0 1.995048
81020.0 1.994886
81030.0 1.995632
81040.0 1.995814
81050.0 1.995665
81060.0 1.995581
81070.0 1.995460
81080.0 1.995271
81090.0 1.994956
81100.0 1.995098
81110.0 1.995101
81120.0 1.995040
81130.0 1.994856
81140.0 1.994727
81150.0 1.995263
81160.0 1.995130
81170.0 1.995117
81180.0 1.994886
81190.0 1.994847
81200.0 1.994932
81210.0 1.994777
81220.0 1.994875
81230.0 1.994951
81240.0 1.994829
81250.0 1.994668
81260.0 1.994591
81270.0 1.994532
81280.0 1.994548
81290.0 1.994486
81300.0 1.994536
81310.0 1.994514
81320.0 1.994453
81330.0 1.994419
81340.0 1.994462
81350.0 1.994499
81360.0 1.994296
81370.0 1.994341
81380.0 1.994241
81390.0 1.994266
81400.0 1.994212
81410.0 1.994361
81420.0 1.994772
81430.0 1.994806
81440.0 1.994787
81450.0 1.994695
81460.0 1.994608
81470.0 1.994591
81480.0 1.994520
81490.0 1.994259
81500.0 1.994461
81510.0 1.995230
81520.0 1.995148
81530.0 1.995059
81540.0 1.995239
81550.0 1.995230
81560.0 1.995061
81570.0 1.995126
81580.0 1.995298
81590.0 1.995035
81600.0 1.995053
81610.0 1.994829
81620.0 1.994694
81630.0 1.994516
81640.0 1.994386
81650.0 1.994311
81660.0 1.994338
81670.0 1.994225
81680.0 1.994018
81690.0 1.994106
81700.0 1.994081
81710.0 1.994053
81720.0 1.993975
81730.0 1.994654
81740.0 1.996278
81750.0 1.998583
81760.0 2.000216
81770.0 2.001009
81780.0 2.000980
81790.0 2.001031
81800.0 2.001659
81810.0 2.001650
81820.0 2.001608
81830.0 2.001488
81840.0 2.001484
81850.0 2.001530
81860.0 2.001516
81870.0 2.001335
81880.0 2.001274
81890.0 2.001399
81900.0 2.002029
81910.0 2.001779
81920.0 2.001818
81930.0 2.001772
81940.0 2.001672
81950.0 2.001395
81960.0 2.001409
81970.0 2.001289
81980.0 2.001267
81990.0 2.001285
82000.0 2.001222
82010.0 2.001205
82020.0 2.001146
82030.0 2.001056
82040.0 2.001009
82050.0 2.001000
82060.0 2.000950
82070.0 2.000934
82080.0 2.000894
82090.0 2.000805
82100.0 2.000742
82110.0 2.000878
82120.0 2.000788
82130.0 2.000728
82140.0 2.000579
82150.0 2.000562
82160.0 2.000727
82170.0 2.000617
82180.0 2.000516
82190.0 2.000379
82200.0 2.000517
82210.0 2.001010
82220.0 2.001074
82230.0 2.000889
82240.0 2.000834
82250.0 2.000806
82260.0 2.001135
82270.0 2.000976
82280.0 2.000930
82290.0 2.001289
82300.0 2.001216
82310.0 2.001094
82320.0 2.001210
82330.0 2.001103
82340.0 2.001044
82350.0 2.000926
82360.0 2.001130
82370.0 2.001406
82380.0 2.001447
82390.0 2.001322
82400.0 2.001234
82410.0 2.001140
82420.0 2.001186
82430.0 2.000952
82440.0 2.000855
82450.0 2.000803
82460.0 2.000598
82470.0 2.000594
82480.0 2.000764
82490.0 2.000587
82500.0 2.000746
82510.0 2.000724
82520.0 2.001138
82530.0 2.001361
82540.0 2.001176
82550.0 2.001205
82560.0 2.001091
82570.0 2.001020
82580.0 2.001025
82590.0 2.001034
82600.0 2.000922
82610.0 2.000854
82620.0 2.000478
82630.0 2.000365
82640.0 2.000427
82650.0 2.000342
82660.0 2.000266
82670.0 2.000341
82680.0 2.000225
82690.0 2.000137
82700.0 2.000225
82710.0 2.000140
82720.0 1.999927
82730.0 1.999631
82740.0 1.999557
82750.0 1.999790
82760.0 2.000985
82770.0 2.001097
82780.0 2.000800
82790.0 2.000641
82800.0 2.000616
82810.0 2.000333
82820.0 2.000435
82830.0 2.000329
82840.0 2.000230
82850.0 2.000225
82860.0 2.000020
82870.0 1.999932
82880.0 1.999816
82890.0 1.999644
82900.0 1.999499
82910.0 1.999595
82920.0 1.999967
82930.0 1.999881
82940.0 1.999908
82950.0 1.999745
82960.0 1.999697
82970.0 1.999481
82980.0 1.999493
82990.0 1.999936
83000.0 2.000026
83010.0 1.999879
83020.0 1.999831
83030.0 1.999808
83040.0 1.999792
83050.0 1.999979
83060.0 2.000595
83070.0 2.000553
83080.0 2.000454
83090.0 2.000438
83100.0 2.000259
83110.0 2.000068
83120.0 1.999890
83130.0 1.999719
83140.0 1.999603
83150.0 1.999357
83160.0 1.999037
83170.0 1.999049
83180.0 1.998980
83190.0 1.999288
83200.0 1.999192
83210.0 2.000221
83220.0 2.001022
83230.0 2.000937
83240.0 2.001084
83250.0 2.001556
83260.0 2.001705
83270.0 2.001680
83280.0 2.001528
83290.0 2.001393
83300.0 2.001618
83310.0 2.001836
83320.0 2.001800
83330.0 2.001670
83340.0 2.001610
83350.0 2.001709
83360.0 2.001570
83370.0 2.001430
83380.0 2.001767
83390.0 2.001615
83400.0 2.001832
83410.0 2.001881
83420.0 2.001954
83430.0 2.001916
83440.0 2.001889
83450.0 2.001840
83460.0 2.001715
83470.0 2.001783
83480.0 2.001592
83490.0 2.001460
83500.0 2.001422
83510.0 2.001378
83520.0 2.001249
83530.0 2.001259
83540.0 2.001199
83550.0 2.001123
83560.0 2.001019
83570.0 2.000973
83580.0 2.000931
83590.0 2.001054
83600.0 2.000865
83610.0 2.000634
83620.0 2.000480
83630.0 2.000463
83640.0 2.000506
83650.0 2.000423
83660.0 2.000241
83670.0 2.000015
83680.0 1.999992
83690.0 2.000279
83700.0 2.000346
83710.0 2.000381
83720.0 2.000227
83730.0 2.000148
83740.0 2.000111
83750.0 1.999962
83760.0 1.999930
83770.0 2.000026
83780.0 1.999964
83790.0 1.999873
83800.0 1.999761
83810.0 1.999526
83820.0 1.999446
83830.0 1.999519
83840.0 1.999637
83850.0 1.999792
83860.0 1.999777
83870.0 2.000915
83880.0 2.002889
83890.0 2.003673
83900.0 2.003659
83910.0 2.003615
83920.0 2.003469
83930.0 2.003547
83940.0 2.003693
83950.0 2.003773
83960.0 2.003710
83970.0 2.003593
83980.0 2.003504
83990.0 2.003424
84000.0 2.003208
84010.0 2.002943
84020.0 2.003063
84030.0 2.003331
84040.0 2.003181
84050.0 2.003090
84060.0 2.002857
84070.0 2.002736
84080.0 2.002694
84090.0 2.002451
84100.0 2.002308
84110.0 2.002193
84120.0 2.002107
84130.0 2.001925
84140.0 2.001785
84150.0 2.001796
84160.0 2.001873
84170.0 2.001816
84180.0 2.001808
84190.0 2.001608
84200.0 2.001515
84210.0 2.001352
84220.0 2.001496
84230.0 2.002233
84240.0 2.002679
84250.0 2.002820
84260.0 2.003046
84270.0 2.002942
84280.0 2.002788
84290.0 2.002698
84300.0 2.002817
84310.0 2.002593
84320.0 2.002810
84330.0 2.002700
84340.0 2.002525
84350.0 2.002411
84360.0 2.002295
84370.0 2.002272
84380.0 2.001953
84390.0 2.001823
84400.0 2.001851
84410.0 2.001735
84420.0 2.001729
84430.0 2.001553
84440.0 2.001393
84450.0 2.001328
84460.0 2.001142
84470.0 2.001091
84480.0 2.000972
84490.0 2.000980
84500.0 2.000988
84510.0 2.000908
84520.0 2.000851
84530.0 2.000806
84540.0 2.000774
84550.0 2.000677
84560.0 2.000525
84570.0 2.000422
84580.0 2.000330
84590.0 2.000383
84600.0 2.000771
84610.0 2.000661
84620.0 2.000467
84630.0 2.000788
84640.0 2.001749
84650.0 2.001616
84660.0 2.001543
84670.0 2.001490
84680.0 2.001419
84690.0 2.001154
84700.0 2.001187
84710.0 2.000996
84720.0 2.000902
84730.0 2.000809
84740.0 2.000698
84750.0 2.001744
84760.0 2.001766
84770.0 2.001526
84780.0 2.001377
84790.0 2.001303
84800.0 2.001308
84810.0 2.001367
84820.0 2.001111
84830.0 2.001085
84840.0 2.001118
84850.0 2.000985
84860.0 2.000866
84870.0 2.000804
84880.0 2.000727
84890.0 2.001089
84900.0 2.000938
84910.0 2.000885
84920.0 2.000680
84930.0 2.000556
84940.0 2.000609
84950.0 2.000526
84960.0 2.000515
84970.0 2.000386
84980.0 2.000311
84990.0 2.000360
85000.0 2.000324
85010.0 2.000295
85020.0 2.000201
85030.0 2.000005
85040.0 1.999868
85050.0 1.999792
85060.0 1.999597
85070.0 1.999572
85080.0 1.999334
85090.0 1.999518
85100.0 1.999476
85110.0 1.999180
85120.0 1.999316
85130.0 1.999715
85140.0 1.999805
85150.0 1.999693
85160.0 1.999621
85170.0 1.999597
85180.0 1.999461
85190.0 1.999350
85200.0 1.999124
85210.0 1.999040
85220.0 1.999033
85230.0 1.999030
85240.0 1.998926
85250.0 1.998918
85260.0 1.998796
85270.0 1.998654
85280.0 1.998511
85290.0 1.998336
85300.0 1.998224
85310.0 1.998047
85320.0 1.997850
85330.0 1.998516
85340.0 1.998820
85350.0 1.998591
85360.0 1.998695
85370.0 1.998985
85380.0 1.999121
85390.0 1.998988
85400.0 1.998931
85410.0 1.998837
85420.0 1.998908
85430.0 1.998866
85440.0 1.998748
85450.0 1.998716
85460.0 1.998817
85470.0 1.999058
85480.0 1.998922
85490.0 1.998757
85500.0 1.998637
85510.0 1.998590
85520.0 1.998614
85530.0 1.998494
85540.0 1.998358
85550.0 1.998794
85560.0 1.999291
85570.0 1.999642
85580.0 1.999919
85590.0 2.000059
85600.0 2.000041
85610.0 2.000246
85620.0 2.000098
85630.0 2.000187
85640.0 2.000206
85650.0 2.000140
85660.0 2.000063
85670.0 2.000132
85680.0 2.000094
85690.0 2.000063
85700.0 2.000309
85710.0 2.000564
85720.0 2.000664
85730.0 2.000633
85740.0 2.000846
85750.0 2.000618
85760.0 2.000603
85770.0 2.000466
85780.0 2.000180
85790.0 2.000199
85800.0 2.000017
85810.0 1.999954
85820.0 1.999978
85830.0 1.999872
85840.0 1.999866
85850.0 1.999874
85860.0 1.999766
85870.0 1.999747
85880.0 1.999690
85890.0 1.999823
85900.0 1.999795
85910.0 1.999726
85920.0 1.999664
85930.0 1.999465
85940.0 1.999356
85950.0 1.999279
85960.0 1.999298
85970.0 1.999199
85980.0 1.999272
85990.0 1.999515
86000.0 1.999387
86010.0 1.999337
86020.0 1.999288
86030.0 1.999188
86040.0 1.999123
86050.0 1.999074
86060.0 1.998994
86070.0 1.998929
86080.0 1.998925
86090.0 1.998837
86100.0 1.998767
86110.0 1.998849
86120.0 1.998824
86130.0 1.998751
86140.0 1.998651
86150.0 1.998530
86160.0 1.998457
86170.0 1.998445
86180.0 1.998461
86190.0 1.998303
86200.0 1.998204
86210.0 1.998479
86220.0 1.998532
86230.0 1.998573
86240.0 1.998573
86250.0 1.998649
86260.0 1.999052
86270.0 1.999354
86280.0 1.999244
86290.0 1.999170
86300.0 1.999147
86310.0 1.999056
86320.0 1.998925
86330.0 1.998863
86340.0 1.998863
86350.0 1.998863
86360.0 1.998720
86370.0 1.998621
86380.0 1.998759
86390.0 1.998712
86400.0 1.998596
86400.0 1.998596
