# Tempo(s) E[W]
10.0 3.049911
20.0 4.765450
30.0 5.447390
40.0 6.542944
50.0 7.291203
60.0 8.172680
70.0 8.826153
80.0 9.443761
90.0 9.451118
100.0 10.147902
110.0 10.631221
120.0 11.579580
130.0 12.009141
140.0 12.524853
150.0 13.183831
160.0 14.207941
170.0 15.176307
180.0 15.804014
190.0 16.562436
200.0 17.373947
210.0 18.489853
220.0 19.455035
230.0 20.392062
240.0 21.598604
250.0 22.252716
260.0 23.016205
270.0 23.065314
280.0 23.652338
290.0 24.090984
300.0 24.489612
310.0 25.074007
320.0 25.440652
330.0 25.750235
340.0 26.114798
350.0 26.442130
360.0 26.482767
370.0 26.969253
380.0 27.247614
390.0 27.251894
400.0 27.776179
410.0 27.826706
420.0 28.186759
430.0 28.516966
440.0 29.006879
450.0 29.248352
460.0 29.405786
470.0 29.702298
480.0 29.793709
490.0 29.949705
500.0 30.085043
510.0 30.624226
520.0 30.715828
530.0 30.880809
540.0 31.156865
550.0 31.155638
560.0 31.327144
570.0 31.192144
580.0 31.166934
590.0 31.037618
600.0 30.988645
610.0 30.989796
620.0 30.985899
630.0 31.271147
640.0 31.276616
650.0 31.094203
660.0 31.103157
670.0 30.990320
680.0 31.055352
690.0 30.926065
700.0 30.786105
710.0 30.642324
720.0 30.543590
730.0 30.301141
740.0 30.300687
750.0 30.371130
760.0 30.399858
770.0 30.373500
780.0 30.051733
790.0 29.983203
800.0 29.719339
810.0 29.428288
820.0 29.378839
830.0 29.389143
840.0 29.317918
850.0 29.417394
860.0 29.462953
870.0 29.386765
880.0 29.163183
890.0 28.979251
900.0 28.514614
910.0 28.293011
920.0 28.126519
930.0 28.020603
940.0 27.957655
950.0 27.634883
960.0 27.599307
970.0 27.449643
980.0 27.168131
990.0 27.033577
1000.0 26.856032
1010.0 26.686477
1020.0 26.477063
1030.0 26.516532
1040.0 26.468017
1050.0 26.483862
1060.0 26.376188
1070.0 26.229785
1080.0 26.004297
1090.0 25.919651
1100.0 25.812786
1110.0 25.720909
1120.0 25.636124
1130.0 25.564008
1140.0 25.471532
1150.0 25.371243
1160.0 25.351244
1170.0 25.353723
1180.0 25.145962
1190.0 25.012352
1200.0 24.995217
1210.0 25.054854
1220.0 24.904738
1230.0 24.736079
1240.0 24.580325
1250.0 24.375454
1260.0 24.181154
1270.0 23.946931
1280.0 23.818218
1290.0 23.705024
1300.0 23.599513
1310.0 23.547277
1320.0 23.381914
1330.0 23.222450
1340.0 23.230099
1350.0 23.173101
1360.0 23.188540
1370.0 23.249057
1380.0 23.266502
1390.0 23.222398
1400.0 23.249296
1410.0 23.217646
1420.0 23.205528
1430.0 23.227517
1440.0 23.187224
1450.0 23.258233
1460.0 23.246833
1470.0 23.159011
1480.0 23.055061
1490.0 22.996017
1500.0 22.924168
1510.0 22.780080
1520.0 22.687886
1530.0 22.520637
1540.0 22.339800
1550.0 22.200714
1560.0 22.035147
1570.0 21.943015
1580.0 21.873579
1590.0 21.777165
1600.0 21.696222
1610.0 21.622370
1620.0 21.563212
1630.0 21.504975
1640.0 21.493512
1650.0 21.437516
1660.0 21.300259
1670.0 21.258383
1680.0 21.185109
1690.0 21.068641
1700.0 20.993077
1710.0 20.966937
1720.0 20.880892
1730.0 20.838867
1740.0 20.713544
1750.0 20.639790
1760.0 20.563323
1770.0 20.471792
1780.0 20.419184
1790.0 20.300401
1800.0 20.178753
1810.0 20.147645
1820.0 20.020686
1830.0 19.947520
1840.0 19.871926
1850.0 19.815866
1860.0 19.728971
1870.0 19.620848
1880.0 19.581958
1890.0 19.509176
1900.0 19.488659
1910.0 19.418196
1920.0 19.300013
1930.0 19.253802
1940.0 19.196292
1950.0 19.093979
1960.0 18.978594
1970.0 18.861174
1980.0 18.795883
1990.0 18.712525
2000.0 18.625803
2010.0 18.572998
2020.0 18.514621
2030.0 18.495796
2040.0 18.440462
2050.0 18.330803
2060.0 18.269546
2070.0 18.173361
2080.0 18.088063
2090.0 17.992810
2100.0 17.920009
2110.0 17.951578
2120.0 18.023797
2130.0 18.050549
2140.0 18.171187
2150.0 18.237446
2160.0 18.309777
2170.0 18.392207
2180.0 18.366247
2190.0 18.460081
2200.0 18.547230
2210.0 18.657551
2220.0 18.740526
2230.0 18.854724
2240.0 18.883554
2250.0 18.967234
2260.0 19.059016
2270.0 19.171827
2280.0 19.332257
2290.0 19.415138
2300.0 19.458988
2310.0 19.537938
2320.0 19.652970
2330.0 19.746327
2340.0 19.781598
2350.0 19.873680
2360.0 19.955825
2370.0 20.036271
2380.0 20.094089
2390.0 20.165397
2400.0 20.184125
2410.0 20.233975
2420.0 20.298446
2430.0 20.291614
2440.0 20.256473
2450.0 20.228196
2460.0 20.247931
2470.0 20.267453
2480.0 20.303415
2490.0 20.365184
2500.0 20.394221
2510.0 20.416352
2520.0 20.450827
2530.0 20.512746
2540.0 20.537906
2550.0 20.558555
2560.0 20.533324
2570.0 20.563319
2580.0 20.585113
2590.0 20.627302
2600.0 20.667422
2610.0 20.662893
2620.0 20.684054
2630.0 20.700614
2640.0 20.772387
2650.0 20.823943
2660.0 20.875067
2670.0 20.950300
2680.0 21.016755
2690.0 21.089862
2700.0 21.103555
2710.0 21.133258
2720.0 21.256097
2730.0 21.367808
2740.0 21.435089
2750.0 21.513416
2760.0 21.598408
2770.0 21.717556
2780.0 21.783265
2790.0 21.859710
2800.0 21.936101
2810.0 21.996748
2820.0 22.138704
2830.0 22.239664
2840.0 22.350912
2850.0 22.436649
2860.0 22.548604
2870.0 22.644743
2880.0 22.741178
2890.0 22.758251
2900.0 22.840572
2910.0 22.914620
2920.0 22.953504
2930.0 23.024333
2940.0 23.044575
2950.0 23.130109
2960.0 23.181519
2970.0 23.199030
2980.0 23.256458
2990.0 23.408554
3000.0 23.452790
3010.0 23.549415
3020.0 23.599760
3030.0 23.661342
3040.0 23.706364
3050.0 23.682836
3060.0 23.718870
3070.0 23.795532
3080.0 23.879968
3090.0 23.911909
3100.0 23.981593
3110.0 24.052413
3120.0 24.099687
3130.0 24.190455
3140.0 24.232945
3150.0 24.283153
3160.0 24.400385
3170.0 24.525679
3180.0 24.666405
3190.0 24.815643
3200.0 24.900615
3210.0 25.037907
3220.0 25.171299
3230.0 25.289335
3240.0 25.377528
3250.0 25.526128
3260.0 25.627788
3270.0 25.749089
3280.0 25.897602
3290.0 26.017680
3300.0 26.146462
3310.0 26.292199
3320.0 26.413278
3330.0 26.546232
3340.0 26.712183
3350.0 26.900580
3360.0 27.059852
3370.0 27.240875
3380.0 27.409188
3390.0 27.570871
3400.0 27.765235
3410.0 27.911303
3420.0 28.036706
3430.0 28.207655
3440.0 28.365721
3450.0 28.530514
3460.0 28.639335
3470.0 28.757259
3480.0 28.906832
3490.0 29.079415
3500.0 29.225552
3510.0 29.438724
3520.0 29.686574
3530.0 29.913833
3540.0 30.192300
3550.0 30.403271
3560.0 30.621016
3570.0 30.884455
3580.0 31.135636
3590.0 31.382576
3600.0 31.629125
3610.0 31.842906
3620.0 32.150106
3630.0 32.371652
3640.0 32.618667
3650.0 32.843316
3660.0 33.068465
3670.0 33.295000
3680.0 33.549388
3690.0 33.814224
3700.0 34.090035
3710.0 34.369648
3720.0 34.674678
3730.0 35.020886
3740.0 35.357114
3750.0 35.669205
3760.0 35.902272
3770.0 36.178840
3780.0 36.527050
3790.0 36.845204
3800.0 37.166882
3810.0 37.486649
3820.0 37.847617
3830.0 38.211342
3840.0 38.545747
3850.0 38.851487
3860.0 39.129303
3870.0 39.440029
3880.0 39.754765
3890.0 40.048514
3900.0 40.394143
3910.0 40.721351
3920.0 41.053032
3930.0 41.370580
3940.0 41.662378
3950.0 41.987253
3960.0 42.309227
3970.0 42.587573
3980.0 42.863593
3990.0 43.118861
4000.0 43.387848
4010.0 43.689541
4020.0 43.967274
4030.0 44.240914
4040.0 44.525451
4050.0 44.741871
4060.0 44.927735
4070.0 45.140348
4080.0 45.359503
4090.0 45.576434
4100.0 45.781675
4110.0 46.013289
4120.0 46.216888
4130.0 46.494743
4140.0 46.711846
4150.0 46.970723
4160.0 47.203437
4170.0 47.359868
4180.0 47.626210
4190.0 47.829613
4200.0 48.094683
4210.0 48.281266
4220.0 48.459858
4230.0 48.615962
4240.0 48.859228
4250.0 49.020745
4260.0 49.209880
4270.0 49.409429
4280.0 49.635205
4290.0 49.858441
4300.0 49.997660
4310.0 50.198539
4320.0 50.398391
4330.0 50.541422
4340.0 50.726367
4350.0 50.857821
4360.0 51.097228
4370.0 51.209640
4380.0 51.347128
4390.0 51.564609
4400.0 51.693058
4410.0 51.765436
4420.0 51.871264
4430.0 51.996477
4440.0 52.148395
4450.0 52.283151
4460.0 52.396785
4470.0 52.544778
4480.0 52.651881
4490.0 52.758396
4500.0 52.923743
4510.0 53.005936
4520.0 53.114532
4530.0 53.211085
4540.0 53.401223
4550.0 53.521701
4560.0 53.643280
4570.0 53.774286
4580.0 53.882097
4590.0 54.037019
4600.0 54.158236
4610.0 54.193943
4620.0 54.306096
4630.0 54.342131
4640.0 54.307696
4650.0 54.370841
4660.0 54.519580
4670.0 54.647408
4680.0 54.791786
4690.0 55.001640
4700.0 55.162669
4710.0 55.275274
4720.0 55.458479
4730.0 55.572300
4740.0 55.777615
4750.0 55.993558
4760.0 56.172201
4770.0 56.406293
4780.0 56.458787
4790.0 56.514653
4800.0 56.625857
4810.0 56.775789
4820.0 56.866434
4830.0 57.042397
4840.0 57.225040
4850.0 57.375771
4860.0 57.553621
4870.0 57.676549
4880.0 57.826151
4890.0 57.966131
4900.0 58.067073
4910.0 58.193350
4920.0 58.290679
4930.0 58.427185
4940.0 58.616130
4950.0 58.760960
4960.0 58.957063
4970.0 59.137478
4980.0 59.294920
4990.0 59.451742
5000.0 59.573253
5010.0 59.732777
5020.0 59.812895
5030.0 60.031252
5040.0 60.197998
5050.0 60.350324
5060.0 60.495573
5070.0 60.627774
5080.0 60.809237
5090.0 61.017793
5100.0 61.160654
5110.0 61.322255
5120.0 61.502886
5130.0 61.669698
5140.0 61.857077
5150.0 62.051852
5160.0 62.260556
5170.0 62.429666
5180.0 62.630174
5190.0 62.869050
5200.0 63.086465
5210.0 63.295866
5220.0 63.483351
5230.0 63.702499
5240.0 63.826467
5250.0 63.931373
5260.0 64.119169
5270.0 64.349726
5280.0 64.492737
5290.0 64.700046
5300.0 64.906807
5310.0 65.147031
5320.0 65.368729
5330.0 65.536111
5340.0 65.707776
5350.0 65.924018
5360.0 66.108890
5370.0 66.344425
5380.0 66.545045
5390.0 66.795747
5400.0 66.951138
5410.0 67.094823
5420.0 67.277833
5430.0 67.568247
5440.0 67.888858
5450.0 68.114037
5460.0 68.361776
5470.0 68.604907
5480.0 68.829560
5490.0 69.008511
5500.0 69.308670
5510.0 69.602488
5520.0 69.829294
5530.0 70.070762
5540.0 70.257034
5550.0 70.504501
5560.0 70.728652
5570.0 70.969683
5580.0 71.152518
5590.0 71.363539
5600.0 71.555310
5610.0 71.736809
5620.0 71.895912
5630.0 72.035601
5640.0 72.244262
5650.0 72.383995
5660.0 72.486245
5670.0 72.640975
5680.0 72.764897
5690.0 72.898556
5700.0 73.071866
5710.0 73.262330
5720.0 73.433364
5730.0 73.664118
5740.0 73.797774
5750.0 73.993753
5760.0 74.149230
5770.0 74.371287
5780.0 74.479651
5790.0 74.553968
5800.0 74.700733
5810.0 74.802984
5820.0 74.911441
5830.0 75.064242
5840.0 75.153573
5850.0 75.309412
5860.0 75.457253
5870.0 75.630497
5880.0 75.725151
5890.0 75.910227
5900.0 76.066181
5910.0 76.213802
5920.0 76.382706
5930.0 76.530431
5940.0 76.547757
5950.0 76.617861
5960.0 76.789174
5970.0 76.966026
5980.0 77.138348
5990.0 77.234744
6000.0 77.337520
6010.0 77.469889
6020.0 77.619859
6030.0 77.699449
6040.0 77.791653
6050.0 77.911437
6060.0 78.017531
6070.0 78.078480
6080.0 78.266294
6090.0 78.363540
6100.0 78.567700
6110.0 78.608412
6120.0 78.692496
6130.0 78.786760
6140.0 78.997076
6150.0 79.125877
6160.0 79.291578
6170.0 79.438066
6180.0 79.636012
6190.0 79.819832
6200.0 79.986772
6210.0 80.150996
6220.0 80.356432
6230.0 80.526937
6240.0 80.693769
6250.0 80.884091
6260.0 80.998325
6270.0 81.170577
6280.0 81.339172
6290.0 81.370501
6300.0 81.534328
6310.0 81.651964
6320.0 81.808423
6330.0 81.956260
6340.0 82.122382
6350.0 82.314368
6360.0 82.457332
6370.0 82.604636
6380.0 82.752415
6390.0 82.921496
6400.0 83.084475
6410.0 83.331933
6420.0 83.492626
6430.0 83.702698
6440.0 83.828989
6450.0 83.995216
6460.0 84.234139
6470.0 84.412266
6480.0 84.591275
6490.0 84.798355
6500.0 85.030653
6510.0 85.243615
6520.0 85.389750
6530.0 85.615625
6540.0 85.802379
6550.0 85.956500
6560.0 86.124174
6570.0 86.338974
6580.0 86.532576
6590.0 86.647604
6600.0 86.765054
6610.0 86.922689
6620.0 87.030585
6630.0 87.266138
6640.0 87.431114
6650.0 87.613803
6660.0 87.780064
6670.0 88.000401
6680.0 88.113122
6690.0 88.251521
6700.0 88.445482
6710.0 88.588619
6720.0 88.742775
6730.0 88.869029
6740.0 89.006082
6750.0 89.132045
6760.0 89.229630
6770.0 89.292400
6780.0 89.430722
6790.0 89.552704
6800.0 89.668439
6810.0 89.677516
6820.0 89.774619
6830.0 89.812879
6840.0 89.906258
6850.0 90.016614
6860.0 90.145345
6870.0 90.272555
6880.0 90.359455
6890.0 90.404589
6900.0 90.539971
6910.0 90.687822
6920.0 90.773865
6930.0 90.746940
6940.0 90.892538
6950.0 91.020155
6960.0 91.125033
6970.0 91.196294
6980.0 91.228688
6990.0 91.288065
7000.0 91.348139
7010.0 91.356216
7020.0 91.394750
7030.0 91.466148
7040.0 91.466109
7050.0 91.548995
7060.0 91.632993
7070.0 91.676211
7080.0 91.780755
7090.0 91.839526
7100.0 91.891741
7110.0 91.894054
7120.0 91.951845
7130.0 91.983211
7140.0 92.038525
7150.0 92.044846
7160.0 92.136525
7170.0 92.246571
7180.0 92.300644
7190.0 92.400133
7200.0 92.432828
7210.0 92.492320
7220.0 92.548765
7230.0 92.607580
7240.0 92.563601
7250.0 92.640487
7260.0 92.718146
7270.0 92.740604
7280.0 92.782109
7290.0 92.838841
7300.0 92.905906
7310.0 92.961560
7320.0 93.062878
7330.0 93.160172
7340.0 93.219035
7350.0 93.212950
7360.0 93.268476
7370.0 93.260649
7380.0 93.299619
7390.0 93.337574
7400.0 93.322893
7410.0 93.325494
7420.0 93.288378
7430.0 93.309631
7440.0 93.334165
7450.0 93.304364
7460.0 93.388878
7470.0 93.438018
7480.0 93.496449
7490.0 93.487708
7500.0 93.616231
7510.0 93.687128
7520.0 93.754352
7530.0 93.749680
7540.0 93.810126
7550.0 93.912664
7560.0 93.956138
7570.0 94.039695
7580.0 94.088369
7590.0 94.137106
7600.0 94.138623
7610.0 94.153317
7620.0 94.230616
7630.0 94.222449
7640.0 94.294735
7650.0 94.340565
7660.0 94.363668
7670.0 94.393820
7680.0 94.377471
7690.0 94.484076
7700.0 94.555800
7710.0 94.566318
7720.0 94.584425
7730.0 94.640576
7740.0 94.674346
7750.0 94.766209
7760.0 94.797351
7770.0 94.873317
7780.0 94.885717
7790.0 94.882829
7800.0 94.873906
7810.0 94.862552
7820.0 94.886654
7830.0 94.937327
7840.0 95.001054
7850.0 95.051065
7860.0 95.148439
7870.0 95.287120
7880.0 95.319345
7890.0 95.331317
7900.0 95.404209
7910.0 95.474614
7920.0 95.552442
7930.0 95.623152
7940.0 95.697650
7950.0 95.729822
7960.0 95.747959
7970.0 95.756339
7980.0 95.751832
7990.0 95.816926
8000.0 95.775679
8010.0 95.749483
8020.0 95.785516
8030.0 95.848242
8040.0 95.890660
8050.0 95.901807
8060.0 95.801889
8070.0 95.817791
8080.0 95.789355
8090.0 95.827563
8100.0 95.807525
8110.0 95.780199
8120.0 95.742846
8130.0 95.786462
8140.0 95.799626
8150.0 95.753258
8160.0 95.755397
8170.0 95.836576
8180.0 95.824696
8190.0 95.844045
8200.0 95.852958
8210.0 95.863131
8220.0 95.882513
8230.0 95.916418
8240.0 95.893971
8250.0 95.885319
8260.0 95.893187
8270.0 95.940915
8280.0 95.912683
8290.0 95.832957
8300.0 95.854859
8310.0 95.856577
8320.0 95.848783
8330.0 95.854860
8340.0 95.831246
8350.0 95.809638
8360.0 95.814892
8370.0 95.815632
8380.0 95.862633
8390.0 95.814041
8400.0 95.880714
8410.0 95.940955
8420.0 95.950712
8430.0 95.944625
8440.0 95.966176
8450.0 95.967347
8460.0 95.908696
8470.0 95.869840
8480.0 95.855913
8490.0 95.812108
8500.0 95.767405
8510.0 95.734718
8520.0 95.694802
8530.0 95.686351
8540.0 95.644040
8550.0 95.608724
8560.0 95.604413
8570.0 95.575551
8580.0 95.559177
8590.0 95.530887
8600.0 95.508442
8610.0 95.470055
8620.0 95.503314
8630.0 95.468160
8640.0 95.412195
8650.0 95.370319
8660.0 95.343890
8670.0 95.324255
8680.0 95.303314
8690.0 95.289643
8700.0 95.259848
8710.0 95.214008
8720.0 95.136134
8730.0 95.048144
8740.0 94.944719
8750.0 94.927399
8760.0 94.911562
8770.0 94.837287
8780.0 94.735950
8790.0 94.720395
8800.0 94.656156
8810.0 94.572300
8820.0 94.464073
8830.0 94.429801
8840.0 94.361029
8850.0 94.298017
8860.0 94.164822
8870.0 94.061239
8880.0 93.901756
8890.0 93.821331
8900.0 93.704222
8910.0 93.627145
8920.0 93.557812
8930.0 93.494310
8940.0 93.430100
8950.0 93.358780
8960.0 93.314611
8970.0 93.163340
8980.0 93.051231
8990.0 92.991802
9000.0 92.902944
9010.0 92.848710
9020.0 92.761504
9030.0 92.733074
9040.0 92.620196
9050.0 92.518429
9060.0 92.397922
9070.0 92.244208
9080.0 92.132431
9090.0 92.041659
9100.0 91.917723
9110.0 91.845884
9120.0 91.775749
9130.0 91.733416
9140.0 91.638871
9150.0 91.530241
9160.0 91.433009
9170.0 91.352201
9180.0 91.293991
9190.0 91.270867
9200.0 91.205075
9210.0 91.106326
9220.0 91.040966
9230.0 90.918131
9240.0 90.866953
9250.0 90.815779
9260.0 90.774313
9270.0 90.650057
9280.0 90.596238
9290.0 90.514640
9300.0 90.444960
9310.0 90.428665
9320.0 90.316363
9330.0 90.222534
9340.0 90.142261
9350.0 90.123066
9360.0 90.028445
9370.0 89.930937
9380.0 89.876094
9390.0 89.780072
9400.0 89.693186
9410.0 89.590157
9420.0 89.516587
9430.0 89.397720
9440.0 89.323699
9450.0 89.232093
9460.0 89.096458
9470.0 89.037681
9480.0 88.961895
9490.0 88.939067
9500.0 88.876418
9510.0 88.748709
9520.0 88.662294
9530.0 88.564849
9540.0 88.456627
9550.0 88.389411
9560.0 88.378136
9570.0 88.328980
9580.0 88.263289
9590.0 88.188041
9600.0 88.116741
9610.0 88.065383
9620.0 88.045917
9630.0 87.984846
9640.0 87.931376
9650.0 87.850239
9660.0 87.793970
9670.0 87.700199
9680.0 87.666010
9690.0 87.600740
9700.0 87.529432
9710.0 87.453433
9720.0 87.416402
9730.0 87.275637
9740.0 87.208681
9750.0 87.125103
9760.0 87.122777
9770.0 87.080302
9780.0 87.034660
9790.0 86.895521
9800.0 86.821158
9810.0 86.778401
9820.0 86.751435
9830.0 86.648785
9840.0 86.608691
9850.0 86.590465
9860.0 86.505876
9870.0 86.481926
9880.0 86.399040
9890.0 86.341330
9900.0 86.242411
9910.0 86.198751
9920.0 86.145508
9930.0 86.092561
9940.0 86.068863
9950.0 86.015999
9960.0 85.931098
9970.0 85.859617
9980.0 85.800481
9990.0 85.761049
10000.0 85.675218
10010.0 85.662241
10020.0 85.651788
10030.0 85.611172
10040.0 85.564513
10050.0 85.533767
10060.0 85.546492
10070.0 85.547046
10080.0 85.535819
10090.0 85.484200
10100.0 85.448478
10110.0 85.392806
10120.0 85.362622
10130.0 85.343201
10140.0 85.329402
10150.0 85.324368
10160.0 85.278823
10170.0 85.228620
10180.0 85.150400
10190.0 85.137801
10200.0 85.142875
10210.0 85.106644
10220.0 85.083920
10230.0 85.090094
10240.0 85.020133
10250.0 84.994469
10260.0 85.012851
10270.0 84.996126
10280.0 84.977116
10290.0 85.005796
10300.0 84.957164
10310.0 84.918599
10320.0 84.916825
10330.0 84.896059
10340.0 84.905850
10350.0 84.799480
10360.0 84.789235
10370.0 84.746460
10380.0 84.691934
10390.0 84.677469
10400.0 84.631838
10410.0 84.563464
10420.0 84.517867
10430.0 84.518073
10440.0 84.493535
10450.0 84.507321
10460.0 84.510077
10470.0 84.457171
10480.0 84.459562
10490.0 84.447858
10500.0 84.374703
10510.0 84.348105
10520.0 84.308776
10530.0 84.273957
10540.0 84.221854
10550.0 84.207925
10560.0 84.216603
10570.0 84.174879
10580.0 84.144917
10590.0 84.087544
10600.0 84.051626
10610.0 84.007462
10620.0 83.978753
10630.0 83.955823
10640.0 83.944393
10650.0 83.876321
10660.0 83.794592
10670.0 83.706393
10680.0 83.655195
10690.0 83.630124
10700.0 83.609311
10710.0 83.546293
10720.0 83.482797
10730.0 83.398863
10740.0 83.317827
10750.0 83.257887
10760.0 83.242319
10770.0 83.173922
10780.0 83.170440
10790.0 83.143066
10800.0 83.106320
10810.0 83.047051
10820.0 82.995510
10830.0 82.948605
10840.0 82.918228
10850.0 82.909006
10860.0 82.853754
10870.0 82.810970
10880.0 82.741467
10890.0 82.649664
10900.0 82.595727
10910.0 82.588366
10920.0 82.567894
10930.0 82.546542
10940.0 82.535444
10950.0 82.525474
10960.0 82.532501
10970.0 82.529313
10980.0 82.495028
10990.0 82.450300
11000.0 82.384027
11010.0 82.311141
11020.0 82.298324
11030.0 82.198267
11040.0 82.123686
11050.0 82.059841
11060.0 81.990699
11070.0 81.968826
11080.0 81.937351
11090.0 81.897023
11100.0 81.841473
11110.0 81.761577
11120.0 81.702711
11130.0 81.611985
11140.0 81.568173
11150.0 81.509269
11160.0 81.442064
11170.0 81.399081
11180.0 81.348779
11190.0 81.285461
11200.0 81.265174
11210.0 81.249528
11220.0 81.176141
11230.0 81.123388
11240.0 81.048447
11250.0 81.012976
11260.0 80.958231
11270.0 80.963221
11280.0 80.868809
11290.0 80.835434
11300.0 80.800651
11310.0 80.789835
11320.0 80.755431
11330.0 80.691936
11340.0 80.705442
11350.0 80.717185
11360.0 80.747354
11370.0 80.751898
11380.0 80.769550
11390.0 80.770501
11400.0 80.728847
11410.0 80.746808
11420.0 80.760218
11430.0 80.791476
11440.0 80.792982
11450.0 80.819928
11460.0 80.815355
11470.0 80.818330
11480.0 80.822281
11490.0 80.838468
11500.0 80.823236
11510.0 80.843515
11520.0 80.830731
11530.0 80.789350
11540.0 80.779379
11550.0 80.780867
11560.0 80.747999
11570.0 80.759383
11580.0 80.776793
11590.0 80.760384
11600.0 80.747636
11610.0 80.773352
11620.0 80.784453
11630.0 80.775181
11640.0 80.778714
11650.0 80.791672
11660.0 80.797370
11670.0 80.802852
11680.0 80.807902
11690.0 80.800671
11700.0 80.808865
11710.0 80.781023
11720.0 80.786306
11730.0 80.766682
11740.0 80.694358
11750.0 80.672750
11760.0 80.675528
11770.0 80.671670
11780.0 80.661483
11790.0 80.687639
11800.0 80.646654
11810.0 80.635174
11820.0 80.654656
11830.0 80.627836
11840.0 80.613231
11850.0 80.597956
11860.0 80.608247
11870.0 80.599280
11880.0 80.619124
11890.0 80.635447
11900.0 80.601212
11910.0 80.605334
11920.0 80.600713
11930.0 80.581793
11940.0 80.551488
11950.0 80.525331
11960.0 80.495245
11970.0 80.491509
11980.0 80.447184
11990.0 80.420316
12000.0 80.413695
12010.0 80.403766
12020.0 80.385119
12030.0 80.335706
12040.0 80.338288
12050.0 80.304168
12060.0 80.272992
12070.0 80.213817
12080.0 80.193271
12090.0 80.157158
12100.0 80.146713
12110.0 80.104565
12120.0 80.041947
12130.0 79.994681
12140.0 79.974823
12150.0 79.948273
12160.0 79.937274
12170.0 79.903042
12180.0 79.867014
12190.0 79.816175
12200.0 79.799299
12210.0 79.746523
12220.0 79.727318
12230.0 79.696256
12240.0 79.686283
12250.0 79.661521
12260.0 79.622487
12270.0 79.621900
12280.0 79.590429
12290.0 79.572899
12300.0 79.549686
12310.0 79.502695
12320.0 79.503397
12330.0 79.471688
12340.0 79.433717
12350.0 79.400916
12360.0 79.354836
12370.0 79.330616
12380.0 79.305815
12390.0 79.264926
12400.0 79.245102
12410.0 79.232623
12420.0 79.208361
12430.0 79.166231
12440.0 79.159170
12450.0 79.113993
12460.0 79.103683
12470.0 79.061336
12480.0 79.046836
12490.0 79.036755
12500.0 78.998434
12510.0 78.956135
12520.0 78.931265
12530.0 78.909811
12540.0 78.849769
12550.0 78.796752
12560.0 78.750351
12570.0 78.702891
12580.0 78.659167
12590.0 78.617309
12600.0 78.577072
12610.0 78.500202
12620.0 78.459241
12630.0 78.372200
12640.0 78.363955
12650.0 78.326700
12660.0 78.275593
12670.0 78.246953
12680.0 78.211509
12690.0 78.146912
12700.0 78.038432
12710.0 78.006305
12720.0 77.964051
12730.0 77.899940
12740.0 77.898490
12750.0 77.876101
12760.0 77.835029
12770.0 77.828974
12780.0 77.762834
12790.0 77.711872
12800.0 77.658287
12810.0 77.593361
12820.0 77.536214
12830.0 77.503972
12840.0 77.451673
12850.0 77.398651
12860.0 77.371686
12870.0 77.337490
12880.0 77.283099
12890.0 77.254569
12900.0 77.224746
12910.0 77.215563
12920.0 77.147235
12930.0 77.116035
12940.0 77.078382
12950.0 77.045687
12960.0 77.019736
12970.0 76.977913
12980.0 76.936646
12990.0 76.906883
13000.0 76.883933
13010.0 76.856275
13020.0 76.820259
13030.0 76.751480
13040.0 76.709151
13050.0 76.661364
13060.0 76.612261
13070.0 76.594408
13080.0 76.559748
13090.0 76.513282
13100.0 76.477921
13110.0 76.468121
13120.0 76.415746
13130.0 76.391493
13140.0 76.345736
13150.0 76.315981
13160.0 76.259436
13170.0 76.224933
13180.0 76.150679
13190.0 76.118145
13200.0 76.073797
13210.0 76.030085
13220.0 75.974349
13230.0 75.946374
13240.0 75.944006
13250.0 75.863786
13260.0 75.797835
13270.0 75.769175
13280.0 75.752012
13290.0 75.718253
13300.0 75.684966
13310.0 75.678098
13320.0 75.652681
13330.0 75.608525
13340.0 75.575007
13350.0 75.571043
13360.0 75.537780
13370.0 75.479305
13380.0 75.452300
13390.0 75.429302
13400.0 75.386241
13410.0 75.351893
13420.0 75.324303
13430.0 75.277735
13440.0 75.247794
13450.0 75.203906
13460.0 75.173783
13470.0 75.144385
13480.0 75.127703
13490.0 75.094167
13500.0 75.083886
13510.0 75.068803
13520.0 75.055266
13530.0 75.036387
13540.0 74.962261
13550.0 74.926695
13560.0 74.886581
13570.0 74.877231
13580.0 74.858333
13590.0 74.863003
13600.0 74.849605
13610.0 74.855751
13620.0 74.819923
13630.0 74.817561
13640.0 74.767178
13650.0 74.730722
13660.0 74.729190
13670.0 74.697567
13680.0 74.702099
13690.0 74.670271
13700.0 74.629357
13710.0 74.579431
13720.0 74.512601
13730.0 74.462151
13740.0 74.435901
13750.0 74.405754
13760.0 74.373143
13770.0 74.322488
13780.0 74.236725
13790.0 74.192647
13800.0 74.158958
13810.0 74.134559
13820.0 74.077771
13830.0 74.022471
13840.0 73.996171
13850.0 73.974016
13860.0 73.909056
13870.0 73.867831
13880.0 73.780575
13890.0 73.736295
13900.0 73.705053
13910.0 73.678449
13920.0 73.674359
13930.0 73.614241
13940.0 73.587684
13950.0 73.569395
13960.0 73.520164
13970.0 73.465535
13980.0 73.432732
13990.0 73.359572
14000.0 73.334038
14010.0 73.293573
14020.0 73.232458
14030.0 73.195097
14040.0 73.134986
14050.0 73.106116
14060.0 73.055543
14070.0 73.025277
14080.0 72.999311
14090.0 72.904215
14100.0 72.873026
14110.0 72.843468
14120.0 72.807249
14130.0 72.785200
14140.0 72.738769
14150.0 72.701655
14160.0 72.674455
14170.0 72.640519
14180.0 72.604245
14190.0 72.538109
14200.0 72.540644
14210.0 72.502122
14220.0 72.457452
14230.0 72.412808
14240.0 72.363807
14250.0 72.320416
14260.0 72.260674
14270.0 72.213899
14280.0 72.171292
14290.0 72.131405
14300.0 72.089263
14310.0 72.045408
14320.0 71.991399
14330.0 71.941002
14340.0 71.894263
14350.0 71.864630
14360.0 71.827758
14370.0 71.788226
14380.0 71.757149
14390.0 71.696356
14400.0 71.658181
14410.0 71.619886
14420.0 71.575032
14430.0 71.535516
14440.0 71.474834
14450.0 71.420329
14460.0 71.377102
14470.0 71.348848
14480.0 71.302739
14490.0 71.241002
14500.0 71.200127
14510.0 71.130848
14520.0 71.082804
14530.0 71.025798
14540.0 70.984023
14550.0 70.920787
14560.0 70.857129
14570.0 70.830941
14580.0 70.769186
14590.0 70.726154
14600.0 70.682155
14610.0 70.633275
14620.0 70.594763
14630.0 70.557892
14640.0 70.512419
14650.0 70.475412
14660.0 70.425927
14670.0 70.406244
14680.0 70.373955
14690.0 70.306284
14700.0 70.261226
14710.0 70.211200
14720.0 70.159319
14730.0 70.123656
14740.0 70.095162
14750.0 70.052120
14760.0 69.999142
14770.0 69.975246
14780.0 69.924527
14790.0 69.898090
14800.0 69.856388
14810.0 69.814197
14820.0 69.784146
14830.0 69.717800
14840.0 69.689093
14850.0 69.650807
14860.0 69.593641
14870.0 69.562866
14880.0 69.503736
14890.0 69.480443
14900.0 69.455249
14910.0 69.420767
14920.0 69.384538
14930.0 69.318638
14940.0 69.292724
14950.0 69.260512
14960.0 69.230241
14970.0 69.196110
14980.0 69.170740
14990.0 69.153042
15000.0 69.107226
15010.0 69.066670
15020.0 69.046645
15030.0 69.036388
15040.0 69.014849
15050.0 68.993839
15060.0 68.954930
15070.0 68.943698
15080.0 68.885002
15090.0 68.872895
15100.0 68.847435
15110.0 68.819709
15120.0 68.800206
15130.0 68.773010
15140.0 68.736436
15150.0 68.695376
15160.0 68.660107
15170.0 68.645068
15180.0 68.613331
15190.0 68.568845
15200.0 68.529443
15210.0 68.486442
15220.0 68.461412
15230.0 68.426161
15240.0 68.386160
15250.0 68.314927
15260.0 68.269018
15270.0 68.241865
15280.0 68.215908
15290.0 68.162349
15300.0 68.150093
15310.0 68.121034
15320.0 68.062092
15330.0 68.021800
15340.0 67.992881
15350.0 67.960265
15360.0 67.937465
15370.0 67.903830
15380.0 67.846269
15390.0 67.842466
15400.0 67.826518
15410.0 67.789325
15420.0 67.724947
15430.0 67.696317
15440.0 67.697993
15450.0 67.642185
15460.0 67.618521
15470.0 67.585617
15480.0 67.538319
15490.0 67.502678
15500.0 67.485361
15510.0 67.448998
15520.0 67.434616
15530.0 67.415672
15540.0 67.394288
15550.0 67.384984
15560.0 67.360653
15570.0 67.350998
15580.0 67.326183
15590.0 67.315733
15600.0 67.291660
15610.0 67.285199
15620.0 67.281376
15630.0 67.255395
15640.0 67.211362
15650.0 67.209051
15660.0 67.203388
15670.0 67.168093
15680.0 67.130712
15690.0 67.107333
15700.0 67.100443
15710.0 67.094753
15720.0 67.095580
15730.0 67.076336
15740.0 67.073884
15750.0 67.056313
15760.0 67.043531
15770.0 67.034307
15780.0 67.035101
15790.0 67.034383
15800.0 67.017500
15810.0 66.999482
15820.0 66.970869
15830.0 66.953170
15840.0 66.915055
15850.0 66.931234
15860.0 66.912794
15870.0 66.913184
15880.0 66.925245
15890.0 66.935427
15900.0 66.956804
15910.0 66.960444
15920.0 66.983377
15930.0 67.004003
15940.0 66.993116
15950.0 67.003649
15960.0 67.006210
15970.0 67.002443
15980.0 66.984538
15990.0 66.986605
16000.0 66.985454
16010.0 66.978250
16020.0 66.970634
16030.0 66.953707
16040.0 66.962473
16050.0 66.959015
16060.0 66.939997
16070.0 66.918860
16080.0 66.911725
16090.0 66.908422
16100.0 66.920786
16110.0 66.919902
16120.0 66.911546
16130.0 66.908960
16140.0 66.907300
16150.0 66.908083
16160.0 66.884602
16170.0 66.878774
16180.0 66.878084
16190.0 66.880905
16200.0 66.892076
16210.0 66.888406
16220.0 66.865158
16230.0 66.831913
16240.0 66.835770
16250.0 66.817440
16260.0 66.805359
16270.0 66.807935
16280.0 66.799887
16290.0 66.807903
16300.0 66.800663
16310.0 66.800029
16320.0 66.801775
16330.0 66.804239
16340.0 66.822401
16350.0 66.823232
16360.0 66.821405
16370.0 66.830813
16380.0 66.827444
16390.0 66.818805
16400.0 66.826371
16410.0 66.798493
16420.0 66.795695
16430.0 66.780649
16440.0 66.769711
16450.0 66.741598
16460.0 66.746454
16470.0 66.729384
16480.0 66.715762
16490.0 66.721522
16500.0 66.720006
16510.0 66.705376
16520.0 66.682373
16530.0 66.668119
16540.0 66.654252
16550.0 66.656923
16560.0 66.642694
16570.0 66.655639
16580.0 66.634955
16590.0 66.636194
16600.0 66.630175
16610.0 66.635991
16620.0 66.629914
16630.0 66.629985
16640.0 66.643036
16650.0 66.636664
16660.0 66.633360
16670.0 66.633961
16680.0 66.601065
16690.0 66.601580
16700.0 66.601773
16710.0 66.588030
16720.0 66.588710
16730.0 66.588724
16740.0 66.563225
16750.0 66.546594
16760.0 66.560938
16770.0 66.569265
16780.0 66.568817
16790.0 66.527900
16800.0 66.509029
16810.0 66.529954
16820.0 66.543351
16830.0 66.544713
16840.0 66.541658
16850.0 66.541964
16860.0 66.549661
16870.0 66.533775
16880.0 66.537584
16890.0 66.532073
16900.0 66.549454
16910.0 66.514986
16920.0 66.519099
16930.0 66.498047
16940.0 66.502469
16950.0 66.500938
16960.0 66.472123
16970.0 66.473189
16980.0 66.467184
16990.0 66.466888
17000.0 66.461805
17010.0 66.462576
17020.0 66.434539
17030.0 66.446574
17040.0 66.435733
17050.0 66.430678
17060.0 66.427441
17070.0 66.426206
17080.0 66.410175
17090.0 66.396464
17100.0 66.377512
17110.0 66.359970
17120.0 66.331194
17130.0 66.331074
17140.0 66.293819
17150.0 66.255933
17160.0 66.216946
17170.0 66.196674
17180.0 66.184973
17190.0 66.159591
17200.0 66.153391
17210.0 66.143758
17220.0 66.112170
17230.0 66.095217
17240.0 66.077214
17250.0 66.075672
17260.0 66.036414
17270.0 65.975110
17280.0 65.952681
17290.0 65.942698
17300.0 65.920722
17310.0 65.910679
17320.0 65.890380
17330.0 65.889445
17340.0 65.869325
17350.0 65.869509
17360.0 65.854212
17370.0 65.842844
17380.0 65.827124
17390.0 65.796371
17400.0 65.777847
17410.0 65.774899
17420.0 65.763061
17430.0 65.746295
17440.0 65.739072
17450.0 65.710583
17460.0 65.712218
17470.0 65.693340
17480.0 65.682748
17490.0 65.658669
17500.0 65.613542
17510.0 65.601062
17520.0 65.583226
17530.0 65.573050
17540.0 65.529773
17550.0 65.515642
17560.0 65.496277
17570.0 65.450676
17580.0 65.422106
17590.0 65.392819
17600.0 65.355390
17610.0 65.347034
17620.0 65.335119
17630.0 65.303021
17640.0 65.277472
17650.0 65.262099
17660.0 65.237178
17670.0 65.222392
17680.0 65.185432
17690.0 65.176507
17700.0 65.148211
17710.0 65.121712
17720.0 65.094380
17730.0 65.085298
17740.0 65.062772
17750.0 65.045377
17760.0 65.027578
17770.0 64.997424
17780.0 64.971542
17790.0 64.957591
17800.0 64.944896
17810.0 64.928641
17820.0 64.908852
17830.0 64.892008
17840.0 64.877815
17850.0 64.839142
17860.0 64.824977
17870.0 64.780132
17880.0 64.768937
17890.0 64.758447
17900.0 64.747977
17910.0 64.730922
17920.0 64.702320
17930.0 64.685591
17940.0 64.652790
17950.0 64.646929
17960.0 64.634937
17970.0 64.627953
17980.0 64.631605
17990.0 64.597228
18000.0 64.590784
18010.0 64.587900
18020.0 64.571535
18030.0 64.561119
18040.0 64.535800
18050.0 64.525466
18060.0 64.518996
18070.0 64.520651
18080.0 64.529795
18090.0 64.551115
18100.0 64.545592
18110.0 64.562157
18120.0 64.559237
18130.0 64.543791
18140.0 64.549887
18150.0 64.545441
18160.0 64.562170
18170.0 64.557531
18180.0 64.552794
18190.0 64.558188
18200.0 64.548926
18210.0 64.553342
18220.0 64.536408
18230.0 64.522056
18240.0 64.522249
18250.0 64.506277
18260.0 64.503429
18270.0 64.481044
18280.0 64.487777
18290.0 64.485638
18300.0 64.477608
18310.0 64.462670
18320.0 64.462853
18330.0 64.481717
18340.0 64.492295
18350.0 64.504113
18360.0 64.527160
18370.0 64.514230
18380.0 64.536180
18390.0 64.524223
18400.0 64.531037
18410.0 64.541976
18420.0 64.543820
18430.0 64.546267
18440.0 64.562280
18450.0 64.567330
18460.0 64.561708
18470.0 64.562471
18480.0 64.559399
18490.0 64.554041
18500.0 64.541322
18510.0 64.564721
18520.0 64.549294
18530.0 64.572235
18540.0 64.593960
18550.0 64.590750
18560.0 64.598782
18570.0 64.610060
18580.0 64.613087
18590.0 64.625288
18600.0 64.642544
18610.0 64.652435
18620.0 64.664837
18630.0 64.699478
18640.0 64.717669
18650.0 64.725208
18660.0 64.742112
18670.0 64.771861
18680.0 64.794935
18690.0 64.802462
18700.0 64.803676
18710.0 64.813694
18720.0 64.820402
18730.0 64.833703
18740.0 64.844559
18750.0 64.869706
18760.0 64.898307
18770.0 64.903374
18780.0 64.915190
18790.0 64.932870
18800.0 64.972645
18810.0 64.979339
18820.0 64.984638
18830.0 64.983915
18840.0 64.992723
18850.0 65.007693
18860.0 65.035941
18870.0 65.041725
18880.0 65.043503
18890.0 65.043755
18900.0 65.058993
18910.0 65.060732
18920.0 65.064384
18930.0 65.084677
18940.0 65.090963
18950.0 65.104484
18960.0 65.139310
18970.0 65.152101
18980.0 65.158198
18990.0 65.162933
19000.0 65.192598
19010.0 65.203562
19020.0 65.202560
19030.0 65.214044
19040.0 65.232455
19050.0 65.246700
19060.0 65.272255
19070.0 65.272539
19080.0 65.271106
19090.0 65.279178
19100.0 65.263948
19110.0 65.257529
19120.0 65.260361
19130.0 65.252038
19140.0 65.252652
19150.0 65.247373
19160.0 65.257009
19170.0 65.253300
19180.0 65.254918
19190.0 65.243766
19200.0 65.247731
19210.0 65.247582
19220.0 65.246772
19230.0 65.242272
19240.0 65.232508
19250.0 65.220644
19260.0 65.225597
19270.0 65.213959
19280.0 65.212305
19290.0 65.197066
19300.0 65.209468
19310.0 65.212700
19320.0 65.201457
19330.0 65.214219
19340.0 65.220069
19350.0 65.228874
19360.0 65.232789
19370.0 65.227977
19380.0 65.212962
19390.0 65.179188
19400.0 65.166790
19410.0 65.157205
19420.0 65.149954
19430.0 65.150578
19440.0 65.137117
19450.0 65.118099
19460.0 65.113201
19470.0 65.094144
19480.0 65.091234
19490.0 65.080456
19500.0 65.074664
19510.0 65.062093
19520.0 65.046567
19530.0 65.014321
19540.0 65.012367
19550.0 65.012430
19560.0 65.026398
19570.0 65.016888
19580.0 65.022030
19590.0 65.027304
19600.0 65.027539
19610.0 65.037530
19620.0 65.056078
19630.0 65.063485
19640.0 65.072267
19650.0 65.071599
19660.0 65.040844
19670.0 65.036165
19680.0 65.035333
19690.0 65.051099
19700.0 65.074663
19710.0 65.088626
19720.0 65.087439
19730.0 65.096867
19740.0 65.117187
19750.0 65.140911
19760.0 65.148191
19770.0 65.161761
19780.0 65.153478
19790.0 65.163783
19800.0 65.192764
19810.0 65.207858
19820.0 65.230655
19830.0 65.222445
19840.0 65.236958
19850.0 65.252877
19860.0 65.246500
19870.0 65.272691
19880.0 65.286583
19890.0 65.289119
19900.0 65.301647
19910.0 65.299210
19920.0 65.307663
19930.0 65.322067
19940.0 65.336525
19950.0 65.355585
19960.0 65.353448
19970.0 65.364156
19980.0 65.372785
19990.0 65.372186
20000.0 65.380166
20010.0 65.372399
20020.0 65.387549
20030.0 65.399473
20040.0 65.406811
20050.0 65.407528
20060.0 65.410871
20070.0 65.404726
20080.0 65.401921
20090.0 65.406229
20100.0 65.414295
20110.0 65.400183
20120.0 65.381073
20130.0 65.388407
20140.0 65.407581
20150.0 65.410308
20160.0 65.423449
20170.0 65.425160
20180.0 65.423649
20190.0 65.407103
20200.0 65.399604
20210.0 65.395680
20220.0 65.391081
20230.0 65.395779
20240.0 65.399345
20250.0 65.383985
20260.0 65.394450
20270.0 65.394353
20280.0 65.398325
20290.0 65.397936
20300.0 65.400598
20310.0 65.406350
20320.0 65.384866
20330.0 65.393810
20340.0 65.397448
20350.0 65.389610
20360.0 65.386922
20370.0 65.394546
20380.0 65.402014
20390.0 65.418845
20400.0 65.423573
20410.0 65.426932
20420.0 65.416123
20430.0 65.422686
20440.0 65.419652
20450.0 65.411488
20460.0 65.396334
20470.0 65.386436
20480.0 65.399774
20490.0 65.397391
20500.0 65.388360
20510.0 65.392384
20520.0 65.404291
20530.0 65.417357
20540.0 65.423615
20550.0 65.446046
20560.0 65.468422
20570.0 65.483072
20580.0 65.499322
20590.0 65.523181
20600.0 65.547661
20610.0 65.556235
20620.0 65.555920
20630.0 65.578803
20640.0 65.579313
20650.0 65.590100
20660.0 65.597310
20670.0 65.594388
20680.0 65.584645
20690.0 65.571860
20700.0 65.575677
20710.0 65.573409
20720.0 65.561059
20730.0 65.564517
20740.0 65.543840
20750.0 65.543700
20760.0 65.527654
20770.0 65.519335
20780.0 65.512467
20790.0 65.504222
20800.0 65.474607
20810.0 65.455354
20820.0 65.440674
20830.0 65.430436
20840.0 65.409738
20850.0 65.391299
20860.0 65.370759
20870.0 65.339274
20880.0 65.323196
20890.0 65.305356
20900.0 65.269690
20910.0 65.239606
20920.0 65.203375
20930.0 65.172400
20940.0 65.149585
20950.0 65.126869
20960.0 65.083551
20970.0 65.077316
20980.0 65.049586
20990.0 65.035750
21000.0 64.989202
21010.0 64.955472
21020.0 64.937373
21030.0 64.909581
21040.0 64.884511
21050.0 64.868504
21060.0 64.863029
21070.0 64.839930
21080.0 64.801068
21090.0 64.783226
21100.0 64.756049
21110.0 64.726189
21120.0 64.703091
21130.0 64.663908
21140.0 64.651015
21150.0 64.645880
21160.0 64.623832
21170.0 64.608614
21180.0 64.598122
21190.0 64.579802
21200.0 64.558787
21210.0 64.529918
21220.0 64.522407
21230.0 64.509598
21240.0 64.499418
21250.0 64.492027
21260.0 64.474722
21270.0 64.475665
21280.0 64.446772
21290.0 64.427725
21300.0 64.413787
21310.0 64.401451
21320.0 64.383164
21330.0 64.383220
21340.0 64.394924
21350.0 64.395681
21360.0 64.381621
21370.0 64.385236
21380.0 64.386275
21390.0 64.378246
21400.0 64.373775
21410.0 64.379164
21420.0 64.366258
21430.0 64.376811
21440.0 64.367903
21450.0 64.356756
21460.0 64.340005
21470.0 64.337915
21480.0 64.320835
21490.0 64.306350
21500.0 64.296871
21510.0 64.275692
21520.0 64.273453
21530.0 64.273297
21540.0 64.248439
21550.0 64.228612
21560.0 64.191678
21570.0 64.150793
21580.0 64.139296
21590.0 64.138058
21600.0 64.099716
21610.0 64.098543
21620.0 64.079355
21630.0 64.079106
21640.0 64.078208
21650.0 64.068467
21660.0 64.036703
21670.0 64.013384
21680.0 64.009262
21690.0 64.013470
21700.0 64.008018
21710.0 64.007757
21720.0 64.001133
21730.0 63.999383
21740.0 63.976479
21750.0 63.974076
21760.0 63.962585
21770.0 63.942564
21780.0 63.936306
21790.0 63.926273
21800.0 63.907801
21810.0 63.904175
21820.0 63.882626
21830.0 63.870814
21840.0 63.855734
21850.0 63.850729
21860.0 63.843425
21870.0 63.822256
21880.0 63.805956
21890.0 63.800251
21900.0 63.785784
21910.0 63.765321
21920.0 63.742979
21930.0 63.717477
21940.0 63.682305
21950.0 63.648889
21960.0 63.630072
21970.0 63.619044
21980.0 63.600570
21990.0 63.589233
22000.0 63.552297
22010.0 63.535408
22020.0 63.501578
22030.0 63.462761
22040.0 63.443543
22050.0 63.435157
22060.0 63.396349
22070.0 63.368920
22080.0 63.367019
22090.0 63.338097
22100.0 63.330890
22110.0 63.312397
22120.0 63.297840
22130.0 63.290636
22140.0 63.274704
22150.0 63.257667
22160.0 63.246945
22170.0 63.226540
22180.0 63.218553
22190.0 63.162185
22200.0 63.140040
22210.0 63.119515
22220.0 63.102943
22230.0 63.086217
22240.0 63.081507
22250.0 63.068613
22260.0 63.058192
22270.0 63.053848
22280.0 63.055295
22290.0 63.041879
22300.0 63.034108
22310.0 63.033964
22320.0 63.023636
22330.0 63.013946
22340.0 62.979107
22350.0 62.971553
22360.0 62.974850
22370.0 62.961069
22380.0 62.951427
22390.0 62.933044
22400.0 62.926820
22410.0 62.904834
22420.0 62.896693
22430.0 62.890556
22440.0 62.874298
22450.0 62.871224
22460.0 62.854940
22470.0 62.846663
22480.0 62.834445
22490.0 62.837687
22500.0 62.829926
22510.0 62.824245
22520.0 62.830543
22530.0 62.821608
22540.0 62.818644
22550.0 62.804226
22560.0 62.798029
22570.0 62.793901
22580.0 62.792038
22590.0 62.796904
22600.0 62.794852
22610.0 62.808008
22620.0 62.801846
22630.0 62.787412
22640.0 62.788014
22650.0 62.785033
22660.0 62.794038
22670.0 62.795792
22680.0 62.780903
22690.0 62.766514
22700.0 62.755851
22710.0 62.749455
22720.0 62.756875
22730.0 62.763828
22740.0 62.762342
22750.0 62.747027
22760.0 62.748010
22770.0 62.746269
22780.0 62.729602
22790.0 62.734781
22800.0 62.762744
22810.0 62.784650
22820.0 62.805583
22830.0 62.822630
22840.0 62.841068
22850.0 62.864712
22860.0 62.873091
22870.0 62.882247
22880.0 62.892732
22890.0 62.915674
22900.0 62.932494
22910.0 62.940539
22920.0 62.946493
22930.0 62.962520
22940.0 62.983001
22950.0 62.994204
22960.0 63.005168
22970.0 63.024309
22980.0 63.042573
22990.0 63.047159
23000.0 63.050522
23010.0 63.070369
23020.0 63.098050
23030.0 63.113767
23040.0 63.109071
23050.0 63.115765
23060.0 63.128373
23070.0 63.152169
23080.0 63.162046
23090.0 63.166799
23100.0 63.177804
23110.0 63.198668
23120.0 63.209795
23130.0 63.209829
23140.0 63.214486
23150.0 63.221435
23160.0 63.225828
23170.0 63.233823
23180.0 63.245156
23190.0 63.259194
23200.0 63.290940
23210.0 63.310515
23220.0 63.341357
23230.0 63.368152
23240.0 63.393343
23250.0 63.411374
23260.0 63.428836
23270.0 63.437058
23280.0 63.463932
23290.0 63.492390
23300.0 63.503818
23310.0 63.529373
23320.0 63.538681
23330.0 63.546299
23340.0 63.557546
23350.0 63.573771
23360.0 63.591708
23370.0 63.609854
23380.0 63.634580
23390.0 63.650087
23400.0 63.654104
23410.0 63.676616
23420.0 63.687832
23430.0 63.702707
23440.0 63.721558
23450.0 63.733358
23460.0 63.761443
23470.0 63.781839
23480.0 63.785615
23490.0 63.783537
23500.0 63.802688
23510.0 63.814402
23520.0 63.828963
23530.0 63.818418
23540.0 63.829115
23550.0 63.844683
23560.0 63.860351
23570.0 63.877804
23580.0 63.904404
23590.0 63.913753
23600.0 63.908520
23610.0 63.924586
23620.0 63.948953
23630.0 63.957983
23640.0 63.961294
23650.0 63.974259
23660.0 63.970029
23670.0 63.976089
23680.0 63.964592
23690.0 63.974991
23700.0 63.981244
23710.0 63.992635
23720.0 64.001385
23730.0 64.019346
23740.0 64.033042
23750.0 64.038656
23760.0 64.033191
23770.0 64.035021
23780.0 64.041659
23790.0 64.045136
23800.0 64.039231
23810.0 64.041910
23820.0 64.051260
23830.0 64.042295
23840.0 64.054005
23850.0 64.044787
23860.0 64.055318
23870.0 64.066124
23880.0 64.072585
23890.0 64.081952
23900.0 64.103861
23910.0 64.100879
23920.0 64.107123
23930.0 64.110332
23940.0 64.121953
23950.0 64.130173
23960.0 64.147752
23970.0 64.170018
23980.0 64.181266
23990.0 64.185981
24000.0 64.199352
24010.0 64.207667
24020.0 64.219331
24030.0 64.215565
24040.0 64.220478
24050.0 64.227694
24060.0 64.214333
24070.0 64.200764
24080.0 64.185339
24090.0 64.198320
24100.0 64.203560
24110.0 64.196450
24120.0 64.201003
24130.0 64.206839
24140.0 64.219853
24150.0 64.219250
24160.0 64.225201
24170.0 64.225852
24180.0 64.237529
24190.0 64.248510
24200.0 64.255275
24210.0 64.269959
24220.0 64.263139
24230.0 64.276695
24240.0 64.279646
24250.0 64.287793
24260.0 64.303803
24270.0 64.295310
24280.0 64.303529
24290.0 64.307180
24300.0 64.316736
24310.0 64.327592
24320.0 64.342100
24330.0 64.349612
24340.0 64.342458
24350.0 64.357092
24360.0 64.354937
24370.0 64.361243
24380.0 64.364704
24390.0 64.363247
24400.0 64.359455
24410.0 64.365512
24420.0 64.344080
24430.0 64.347124
24440.0 64.333837
24450.0 64.332924
24460.0 64.331465
24470.0 64.337771
24480.0 64.355686
24490.0 64.363492
24500.0 64.378451
24510.0 64.386626
24520.0 64.387238
24530.0 64.394024
24540.0 64.402990
24550.0 64.397014
24560.0 64.405371
24570.0 64.401476
24580.0 64.397750
24590.0 64.411147
24600.0 64.421143
24610.0 64.429657
24620.0 64.418852
24630.0 64.425549
24640.0 64.433730
24650.0 64.429574
24660.0 64.420443
24670.0 64.427925
24680.0 64.420053
24690.0 64.429178
24700.0 64.439763
24710.0 64.447793
24720.0 64.439170
24730.0 64.445067
24740.0 64.461925
24750.0 64.491810
24760.0 64.521072
24770.0 64.540966
24780.0 64.533625
24790.0 64.564924
24800.0 64.579051
24810.0 64.583240
24820.0 64.613643
24830.0 64.624836
24840.0 64.639943
24850.0 64.672982
24860.0 64.678299
24870.0 64.676900
24880.0 64.700496
24890.0 64.727027
24900.0 64.736445
24910.0 64.745894
24920.0 64.751669
24930.0 64.767071
24940.0 64.777676
24950.0 64.784335
24960.0 64.803397
24970.0 64.814037
24980.0 64.833518
24990.0 64.862269
25000.0 64.875561
25010.0 64.884823
25020.0 64.898816
25030.0 64.906196
25040.0 64.931655
25050.0 64.946330
25060.0 64.962158
25070.0 64.981356
25080.0 64.994973
25090.0 65.017391
25100.0 65.013726
25110.0 65.028599
25120.0 65.026971
25130.0 65.042413
25140.0 65.061432
25150.0 65.074783
25160.0 65.086908
25170.0 65.113127
25180.0 65.140603
25190.0 65.159771
25200.0 65.192927
25210.0 65.193402
25220.0 65.204264
25230.0 65.236043
25240.0 65.247443
25250.0 65.265854
25260.0 65.291413
25270.0 65.316201
25280.0 65.336586
25290.0 65.355525
25300.0 65.370873
25310.0 65.401245
25320.0 65.418968
25330.0 65.439414
25340.0 65.468004
25350.0 65.481462
25360.0 65.494576
25370.0 65.507540
25380.0 65.532991
25390.0 65.548096
25400.0 65.568522
25410.0 65.585167
25420.0 65.615378
25430.0 65.627211
25440.0 65.649248
25450.0 65.668254
25460.0 65.686900
25470.0 65.713472
25480.0 65.719108
25490.0 65.728938
25500.0 65.751987
25510.0 65.763082
25520.0 65.792050
25530.0 65.809002
25540.0 65.822030
25550.0 65.833104
25560.0 65.854815
25570.0 65.875803
25580.0 65.890151
25590.0 65.909222
25600.0 65.937065
25610.0 65.942531
25620.0 65.954568
25630.0 65.981451
25640.0 65.989555
25650.0 65.982947
25660.0 66.002941
25670.0 66.016693
25680.0 66.036605
25690.0 66.047168
25700.0 66.052695
25710.0 66.064526
25720.0 66.062879
25730.0 66.057398
25740.0 66.067237
25750.0 66.065982
25760.0 66.071422
25770.0 66.080669
25780.0 66.097402
25790.0 66.115692
25800.0 66.124055
25810.0 66.134349
25820.0 66.150115
25830.0 66.152452
25840.0 66.156537
25850.0 66.167326
25860.0 66.152833
25870.0 66.171115
25880.0 66.175391
25890.0 66.185454
25900.0 66.186026
25910.0 66.180852
25920.0 66.183553
25930.0 66.188487
25940.0 66.180273
25950.0 66.177480
25960.0 66.170011
25970.0 66.162153
25980.0 66.159374
25990.0 66.167441
26000.0 66.179404
26010.0 66.189606
26020.0 66.196969
26030.0 66.199580
26040.0 66.192700
26050.0 66.170760
26060.0 66.178572
26070.0 66.194340
26080.0 66.201663
26090.0 66.210208
26100.0 66.210159
26110.0 66.195464
26120.0 66.199219
26130.0 66.199486
26140.0 66.184233
26150.0 66.179835
26160.0 66.178939
26170.0 66.171816
26180.0 66.164997
26190.0 66.148176
26200.0 66.150162
26210.0 66.136321
26220.0 66.125137
26230.0 66.111150
26240.0 66.097792
26250.0 66.083954
26260.0 66.058852
26270.0 66.047210
26280.0 66.040696
26290.0 66.031780
26300.0 66.002796
26310.0 65.985646
26320.0 65.958180
26330.0 65.927540
26340.0 65.905401
26350.0 65.880756
26360.0 65.861479
26370.0 65.844746
26380.0 65.826547
26390.0 65.803238
26400.0 65.786510
26410.0 65.772816
26420.0 65.749259
26430.0 65.721605
26440.0 65.712717
26450.0 65.701597
26460.0 65.697278
26470.0 65.675202
26480.0 65.663834
26490.0 65.660031
26500.0 65.649837
26510.0 65.630524
26520.0 65.618202
26530.0 65.607459
26540.0 65.592194
26550.0 65.563839
26560.0 65.536229
26570.0 65.524858
26580.0 65.508376
26590.0 65.497155
26600.0 65.476512
26610.0 65.457900
26620.0 65.443612
26630.0 65.434210
26640.0 65.416837
26650.0 65.393490
26660.0 65.376842
26670.0 65.346113
26680.0 65.332847
26690.0 65.307401
26700.0 65.282859
26710.0 65.264920
26720.0 65.249335
26730.0 65.235474
26740.0 65.217448
26750.0 65.198189
26760.0 65.172471
26770.0 65.158483
26780.0 65.129732
26790.0 65.117621
26800.0 65.100447
26810.0 65.085770
26820.0 65.064791
26830.0 65.050287
26840.0 65.027531
26850.0 65.014043
26860.0 65.002109
26870.0 64.995895
26880.0 64.962707
26890.0 64.936767
26900.0 64.925835
26910.0 64.905370
26920.0 64.889230
26930.0 64.874951
26940.0 64.861901
26950.0 64.850851
26960.0 64.843393
26970.0 64.837546
26980.0 64.823071
26990.0 64.805056
27000.0 64.793309
27010.0 64.784538
27020.0 64.774872
27030.0 64.767249
27040.0 64.756941
27050.0 64.743521
27060.0 64.732844
27070.0 64.725039
27080.0 64.715543
27090.0 64.710134
27100.0 64.702875
27110.0 64.686091
27120.0 64.681969
27130.0 64.667090
27140.0 64.669818
27150.0 64.661808
27160.0 64.662115
27170.0 64.651374
27180.0 64.653916
27190.0 64.665456
27200.0 64.638597
27210.0 64.632967
27220.0 64.638000
27230.0 64.638800
27240.0 64.624629
27250.0 64.624528
27260.0 64.620693
27270.0 64.624874
27280.0 64.616199
27290.0 64.627060
27300.0 64.645199
27310.0 64.638685
27320.0 64.640326
27330.0 64.650184
27340.0 64.661162
27350.0 64.655987
27360.0 64.670461
27370.0 64.672637
27380.0 64.675817
27390.0 64.679152
27400.0 64.683631
27410.0 64.679591
27420.0 64.702276
27430.0 64.714523
27440.0 64.726359
27450.0 64.735828
27460.0 64.763869
27470.0 64.781496
27480.0 64.795862
27490.0 64.811361
27500.0 64.831109
27510.0 64.843663
27520.0 64.844427
27530.0 64.853612
27540.0 64.866232
27550.0 64.876354
27560.0 64.887114
27570.0 64.906671
27580.0 64.930342
27590.0 64.931160
27600.0 64.945102
27610.0 64.966101
27620.0 64.980250
27630.0 64.992979
27640.0 65.003436
27650.0 65.019994
27660.0 65.038205
27670.0 65.057790
27680.0 65.066125
27690.0 65.083267
27700.0 65.087616
27710.0 65.098251
27720.0 65.106050
27730.0 65.115368
27740.0 65.121186
27750.0 65.116615
27760.0 65.132532
27770.0 65.141944
27780.0 65.156429
27790.0 65.171477
27800.0 65.172813
27810.0 65.193589
27820.0 65.207590
27830.0 65.234160
27840.0 65.261856
27850.0 65.286747
27860.0 65.297722
27870.0 65.326843
27880.0 65.356027
27890.0 65.369404
27900.0 65.403735
27910.0 65.429447
27920.0 65.453350
27930.0 65.460208
27940.0 65.481212
27950.0 65.495163
27960.0 65.506879
27970.0 65.524838
27980.0 65.544093
27990.0 65.553466
28000.0 65.562155
28010.0 65.577028
28020.0 65.596333
28030.0 65.608621
28040.0 65.618983
28050.0 65.618745
28060.0 65.628245
28070.0 65.633916
28080.0 65.644279
28090.0 65.654845
28100.0 65.670610
28110.0 65.690795
28120.0 65.709079
28130.0 65.722418
28140.0 65.728187
28150.0 65.744771
28160.0 65.767433
28170.0 65.793521
28180.0 65.803404
28190.0 65.813135
28200.0 65.816132
28210.0 65.837818
28220.0 65.857526
28230.0 65.872416
28240.0 65.885239
28250.0 65.899312
28260.0 65.910036
28270.0 65.932775
28280.0 65.957628
28290.0 65.970586
28300.0 65.983920
28310.0 66.003173
28320.0 66.025435
28330.0 66.037990
28340.0 66.051203
28350.0 66.060406
28360.0 66.091197
28370.0 66.100338
28380.0 66.113472
28390.0 66.131782
28400.0 66.143588
28410.0 66.166286
28420.0 66.188522
28430.0 66.212108
28440.0 66.235754
28450.0 66.250852
28460.0 66.273253
28470.0 66.290496
28480.0 66.308484
28490.0 66.343117
28500.0 66.362716
28510.0 66.375747
28520.0 66.385196
28530.0 66.406408
28540.0 66.436201
28550.0 66.455715
28560.0 66.472944
28570.0 66.487835
28580.0 66.510618
28590.0 66.530064
28600.0 66.553250
28610.0 66.574246
28620.0 66.589633
28630.0 66.613004
28640.0 66.626528
28650.0 66.644322
28660.0 66.665665
28670.0 66.677275
28680.0 66.693722
28690.0 66.721485
28700.0 66.748107
28710.0 66.757623
28720.0 66.771910
28730.0 66.795599
28740.0 66.819275
28750.0 66.836581
28760.0 66.856474
28770.0 66.889647
28780.0 66.912594
28790.0 66.936788
28800.0 66.966473
28810.0 66.992301
28820.0 67.019422
28830.0 67.048755
28840.0 67.076785
28850.0 67.099688
28860.0 67.108780
28870.0 67.129412
28880.0 67.146586
28890.0 67.180849
28900.0 67.204368
28910.0 67.211111
28920.0 67.242119
28930.0 67.279066
28940.0 67.298514
28950.0 67.310483
28960.0 67.324495
28970.0 67.349138
28980.0 67.380625
28990.0 67.400489
29000.0 67.425843
29010.0 67.448249
29020.0 67.478773
29030.0 67.512333
29040.0 67.554556
29050.0 67.586294
29060.0 67.615254
29070.0 67.636625
29080.0 67.672204
29090.0 67.686237
29100.0 67.719774
29110.0 67.742313
29120.0 67.773530
29130.0 67.793262
29140.0 67.813959
29150.0 67.839553
29160.0 67.863812
29170.0 67.892971
29180.0 67.918636
29190.0 67.936893
29200.0 67.959611
29210.0 67.965404
29220.0 67.992999
29230.0 68.003496
29240.0 68.020282
29250.0 68.046861
29260.0 68.069811
29270.0 68.084816
29280.0 68.094852
29290.0 68.109072
29300.0 68.111269
29310.0 68.126503
29320.0 68.134977
29330.0 68.148377
29340.0 68.153771
29350.0 68.170206
29360.0 68.186377
29370.0 68.201754
29380.0 68.197739
29390.0 68.216724
29400.0 68.229098
29410.0 68.241382
29420.0 68.248090
29430.0 68.267482
29440.0 68.272984
29450.0 68.293962
29460.0 68.318056
29470.0 68.323811
29480.0 68.344861
29490.0 68.365414
29500.0 68.393624
29510.0 68.427769
29520.0 68.438315
29530.0 68.461888
29540.0 68.484931
29550.0 68.496879
29560.0 68.511402
29570.0 68.530710
29580.0 68.542912
29590.0 68.559814
29600.0 68.571442
29610.0 68.587149
29620.0 68.602268
29630.0 68.615597
29640.0 68.633962
29650.0 68.651333
29660.0 68.679340
29670.0 68.680851
29680.0 68.692035
29690.0 68.707611
29700.0 68.721853
29710.0 68.727835
29720.0 68.755768
29730.0 68.770181
29740.0 68.781950
29750.0 68.780272
29760.0 68.794114
29770.0 68.807949
29780.0 68.835050
29790.0 68.851799
29800.0 68.861317
29810.0 68.868604
29820.0 68.869295
29830.0 68.880738
29840.0 68.898940
29850.0 68.902691
29860.0 68.916563
29870.0 68.920626
29880.0 68.926194
29890.0 68.949379
29900.0 68.953903
29910.0 68.967585
29920.0 68.980442
29930.0 68.985093
29940.0 68.984843
29950.0 69.013982
29960.0 69.025643
29970.0 69.038446
29980.0 69.039648
29990.0 69.052053
30000.0 69.058134
30010.0 69.070315
30020.0 69.074390
30030.0 69.068678
30040.0 69.065036
30050.0 69.064967
30060.0 69.078458
30070.0 69.082577
30080.0 69.087183
30090.0 69.101221
30100.0 69.107135
30110.0 69.111108
30120.0 69.115881
30130.0 69.115209
30140.0 69.102889
30150.0 69.111314
30160.0 69.119529
30170.0 69.114918
30180.0 69.119822
30190.0 69.125588
30200.0 69.119060
30210.0 69.121790
30220.0 69.126065
30230.0 69.126574
30240.0 69.126861
30250.0 69.119130
30260.0 69.123473
30270.0 69.144727
30280.0 69.156207
30290.0 69.154567
30300.0 69.165864
30310.0 69.175688
30320.0 69.199772
30330.0 69.217071
30340.0 69.217858
30350.0 69.223226
30360.0 69.233226
30370.0 69.226541
30380.0 69.241319
30390.0 69.251794
30400.0 69.266227
30410.0 69.276763
30420.0 69.286431
30430.0 69.297648
30440.0 69.300049
30450.0 69.311043
30460.0 69.323484
30470.0 69.323273
30480.0 69.329387
30490.0 69.337735
30500.0 69.342239
30510.0 69.346859
30520.0 69.356374
30530.0 69.374150
30540.0 69.370973
30550.0 69.396772
30560.0 69.396750
30570.0 69.399890
30580.0 69.402819
30590.0 69.421529
30600.0 69.420320
30610.0 69.421715
30620.0 69.423225
30630.0 69.435098
30640.0 69.421056
30650.0 69.432226
30660.0 69.432930
30670.0 69.440840
30680.0 69.442959
30690.0 69.448246
30700.0 69.457378
30710.0 69.460010
30720.0 69.466637
30730.0 69.471332
30740.0 69.487306
30750.0 69.491735
30760.0 69.505479
30770.0 69.511785
30780.0 69.518343
30790.0 69.532472
30800.0 69.545942
30810.0 69.544550
30820.0 69.557379
30830.0 69.560325
30840.0 69.575559
30850.0 69.584005
30860.0 69.594592
30870.0 69.599524
30880.0 69.609399
30890.0 69.617963
30900.0 69.621768
30910.0 69.640885
30920.0 69.654279
30930.0 69.664018
30940.0 69.659716
30950.0 69.649422
30960.0 69.666409
30970.0 69.672958
30980.0 69.697762
30990.0 69.708515
31000.0 69.720976
31010.0 69.729900
31020.0 69.743288
31030.0 69.752164
31040.0 69.777654
31050.0 69.793604
31060.0 69.792929
31070.0 69.810766
31080.0 69.820302
31090.0 69.822124
31100.0 69.836571
31110.0 69.851449
31120.0 69.884059
31130.0 69.904497
31140.0 69.916183
31150.0 69.932139
31160.0 69.949365
31170.0 69.957912
31180.0 69.979251
31190.0 69.995227
31200.0 70.008022
31210.0 70.031960
31220.0 70.043205
31230.0 70.066350
31240.0 70.090596
31250.0 70.103880
31260.0 70.101821
31270.0 70.126186
31280.0 70.141136
31290.0 70.168829
31300.0 70.190567
31310.0 70.215793
31320.0 70.250639
31330.0 70.275146
31340.0 70.301663
31350.0 70.327816
31360.0 70.349152
31370.0 70.376828
31380.0 70.420220
31390.0 70.446615
31400.0 70.461862
31410.0 70.501845
31420.0 70.539551
31430.0 70.555615
31440.0 70.569465
31450.0 70.605106
31460.0 70.640981
31470.0 70.672153
31480.0 70.701912
31490.0 70.734191
31500.0 70.777947
31510.0 70.811320
31520.0 70.838799
31530.0 70.863327
31540.0 70.892455
31550.0 70.934660
31560.0 70.978501
31570.0 70.999515
31580.0 71.046464
31590.0 71.087030
31600.0 71.120828
31610.0 71.144040
31620.0 71.177445
31630.0 71.218359
31640.0 71.249943
31650.0 71.282872
31660.0 71.314592
31670.0 71.360838
31680.0 71.391463
31690.0 71.428379
31700.0 71.465079
31710.0 71.488103
31720.0 71.525501
31730.0 71.558334
31740.0 71.613323
31750.0 71.657645
31760.0 71.696644
31770.0 71.742591
31780.0 71.790098
31790.0 71.826955
31800.0 71.865344
31810.0 71.905130
31820.0 71.939062
31830.0 71.989641
31840.0 72.031134
31850.0 72.086116
31860.0 72.125831
31870.0 72.171564
31880.0 72.230257
31890.0 72.277535
31900.0 72.322901
31910.0 72.361902
31920.0 72.409859
31930.0 72.429978
31940.0 72.479379
31950.0 72.514244
31960.0 72.555595
31970.0 72.609178
31980.0 72.658212
31990.0 72.707942
32000.0 72.754722
32010.0 72.797178
32020.0 72.845900
32030.0 72.891812
32040.0 72.946961
32050.0 73.010147
32060.0 73.062495
32070.0 73.115476
32080.0 73.175399
32090.0 73.219360
32100.0 73.267609
32110.0 73.313704
32120.0 73.369117
32130.0 73.424783
32140.0 73.484966
32150.0 73.541201
32160.0 73.599573
32170.0 73.633523
32180.0 73.690739
32190.0 73.742391
32200.0 73.801960
32210.0 73.869786
32220.0 73.915225
32230.0 73.978286
32240.0 74.038261
32250.0 74.098762
32260.0 74.134746
32270.0 74.191320
32280.0 74.249591
32290.0 74.299956
32300.0 74.358581
32310.0 74.410308
32320.0 74.471390
32330.0 74.523964
32340.0 74.563993
32350.0 74.607100
32360.0 74.656049
32370.0 74.709413
32380.0 74.764788
32390.0 74.818446
32400.0 74.863604
32410.0 74.919027
32420.0 74.950086
32430.0 74.992089
32440.0 75.044021
32450.0 75.090019
32460.0 75.127338
32470.0 75.171967
32480.0 75.222146
32490.0 75.262405
32500.0 75.306028
32510.0 75.360503
32520.0 75.401707
32530.0 75.442197
32540.0 75.497400
32550.0 75.533962
32560.0 75.582645
32570.0 75.636309
32580.0 75.681493
32590.0 75.700459
32600.0 75.739577
32610.0 75.790315
32620.0 75.806025
32630.0 75.855555
32640.0 75.896664
32650.0 75.933089
32660.0 75.972193
32670.0 76.012461
32680.0 76.052117
32690.0 76.097401
32700.0 76.128896
32710.0 76.163912
32720.0 76.190856
32730.0 76.221720
32740.0 76.241203
32750.0 76.280704
32760.0 76.308001
32770.0 76.342045
32780.0 76.379515
32790.0 76.399336
32800.0 76.423634
32810.0 76.452473
32820.0 76.484487
32830.0 76.516266
32840.0 76.554618
32850.0 76.591381
32860.0 76.623083
32870.0 76.636181
32880.0 76.652976
32890.0 76.665102
32900.0 76.684386
32910.0 76.698894
32920.0 76.714981
32930.0 76.740035
32940.0 76.769734
32950.0 76.788633
32960.0 76.812210
32970.0 76.835764
32980.0 76.851716
32990.0 76.880155
33000.0 76.908153
33010.0 76.926256
33020.0 76.949042
33030.0 76.971281
33040.0 76.981276
33050.0 77.002173
33060.0 77.018585
33070.0 77.037520
33080.0 77.059848
33090.0 77.104421
33100.0 77.135441
33110.0 77.172273
33120.0 77.202998
33130.0 77.248690
33140.0 77.286319
33150.0 77.312614
33160.0 77.350374
33170.0 77.380850
33180.0 77.410384
33190.0 77.443447
33200.0 77.481907
33210.0 77.511334
33220.0 77.542981
33230.0 77.568136
33240.0 77.607288
33250.0 77.637609
33260.0 77.660694
33270.0 77.684249
33280.0 77.703449
33290.0 77.737797
33300.0 77.777783
33310.0 77.811427
33320.0 77.843800
33330.0 77.845736
33340.0 77.872057
33350.0 77.902847
33360.0 77.931851
33370.0 77.945575
33380.0 77.954669
33390.0 77.986096
33400.0 77.999000
33410.0 78.036275
33420.0 78.066539
33430.0 78.092518
33440.0 78.116256
33450.0 78.138097
33460.0 78.161142
33470.0 78.193224
33480.0 78.228544
33490.0 78.254273
33500.0 78.283481
33510.0 78.321280
33520.0 78.335499
33530.0 78.361263
33540.0 78.393662
33550.0 78.427355
33560.0 78.458670
33570.0 78.475114
33580.0 78.496104
33590.0 78.521355
33600.0 78.552269
33610.0 78.576305
33620.0 78.605660
33630.0 78.628327
33640.0 78.644966
33650.0 78.658085
33660.0 78.690080
33670.0 78.720089
33680.0 78.748524
33690.0 78.776513
33700.0 78.813379
33710.0 78.842827
33720.0 78.869275
33730.0 78.900127
33740.0 78.917708
33750.0 78.940880
33760.0 78.962981
33770.0 78.988286
33780.0 79.021112
33790.0 79.048627
33800.0 79.083942
33810.0 79.104491
33820.0 79.138907
33830.0 79.178149
33840.0 79.207800
33850.0 79.244794
33860.0 79.270661
33870.0 79.288437
33880.0 79.305699
33890.0 79.338536
33900.0 79.366625
33910.0 79.400891
33920.0 79.421587
33930.0 79.465933
33940.0 79.494030
33950.0 79.524294
33960.0 79.547066
33970.0 79.568738
33980.0 79.607010
33990.0 79.645005
34000.0 79.674198
34010.0 79.721835
34020.0 79.753840
34030.0 79.790071
34040.0 79.828272
34050.0 79.863420
34060.0 79.898176
34070.0 79.932565
34080.0 79.958408
34090.0 79.987489
34100.0 80.019859
34110.0 80.033213
34120.0 80.063400
34130.0 80.098874
34140.0 80.134587
34150.0 80.161486
34160.0 80.183044
34170.0 80.218096
34180.0 80.246786
34190.0 80.275785
34200.0 80.309677
34210.0 80.335451
34220.0 80.370277
34230.0 80.406820
34240.0 80.440499
34250.0 80.458782
34260.0 80.482297
34270.0 80.501617
34280.0 80.531134
34290.0 80.564391
34300.0 80.576108
34310.0 80.590940
34320.0 80.596084
34330.0 80.628671
34340.0 80.658993
34350.0 80.680420
34360.0 80.718594
34370.0 80.732093
34380.0 80.768079
34390.0 80.794305
34400.0 80.826082
34410.0 80.863381
34420.0 80.895065
34430.0 80.922709
34440.0 80.947577
34450.0 80.960191
34460.0 80.996897
34470.0 81.019678
34480.0 81.059345
34490.0 81.092484
34500.0 81.122056
34510.0 81.139282
34520.0 81.181079
34530.0 81.209424
34540.0 81.240553
34550.0 81.283111
34560.0 81.314799
34570.0 81.350312
34580.0 81.375051
34590.0 81.396360
34600.0 81.436286
34610.0 81.478211
34620.0 81.492349
34630.0 81.523874
34640.0 81.551028
34650.0 81.579944
34660.0 81.595588
34670.0 81.617349
34680.0 81.648750
34690.0 81.667301
34700.0 81.696997
34710.0 81.716779
34720.0 81.738409
34730.0 81.773992
34740.0 81.800797
34750.0 81.813768
34760.0 81.850658
34770.0 81.884288
34780.0 81.903960
34790.0 81.938358
34800.0 81.976565
34810.0 82.009899
34820.0 82.046939
34830.0 82.077317
34840.0 82.101570
34850.0 82.143407
34860.0 82.185130
34870.0 82.203635
34880.0 82.240867
34890.0 82.277889
34900.0 82.300472
34910.0 82.330456
34920.0 82.371390
34930.0 82.405721
34940.0 82.437481
34950.0 82.455606
34960.0 82.473869
34970.0 82.504940
34980.0 82.531414
34990.0 82.557826
35000.0 82.594020
35010.0 82.621590
35020.0 82.646112
35030.0 82.680874
35040.0 82.705379
35050.0 82.735933
35060.0 82.757844
35070.0 82.797501
35080.0 82.825166
35090.0 82.861384
35100.0 82.887585
35110.0 82.920074
35120.0 82.953522
35130.0 82.990881
35140.0 83.020580
35150.0 83.051837
35160.0 83.082461
35170.0 83.106536
35180.0 83.126498
35190.0 83.157980
35200.0 83.180404
35210.0 83.204861
35220.0 83.232218
35230.0 83.249910
35240.0 83.271122
35250.0 83.298828
35260.0 83.308678
35270.0 83.344840
35280.0 83.380517
35290.0 83.412526
35300.0 83.445973
35310.0 83.480113
35320.0 83.521080
35330.0 83.557390
35340.0 83.595327
35350.0 83.613058
35360.0 83.646987
35370.0 83.682433
35380.0 83.713236
35390.0 83.723352
35400.0 83.760737
35410.0 83.791965
35420.0 83.819983
35430.0 83.850502
35440.0 83.873398
35450.0 83.899509
35460.0 83.933418
35470.0 83.977085
35480.0 84.016160
35490.0 84.056307
35500.0 84.100369
35510.0 84.129376
35520.0 84.168828
35530.0 84.208027
35540.0 84.228339
35550.0 84.258438
35560.0 84.292994
35570.0 84.316689
35580.0 84.365119
35590.0 84.407302
35600.0 84.434824
35610.0 84.468757
35620.0 84.490765
35630.0 84.518024
35640.0 84.545063
35650.0 84.575060
35660.0 84.599204
35670.0 84.628467
35680.0 84.655513
35690.0 84.683728
35700.0 84.711302
35710.0 84.756951
35720.0 84.794866
35730.0 84.829256
35740.0 84.857784
35750.0 84.890618
35760.0 84.920158
35770.0 84.959368
35780.0 84.991625
35790.0 85.024190
35800.0 85.064854
35810.0 85.103017
35820.0 85.128036
35830.0 85.162464
35840.0 85.219241
35850.0 85.262855
35860.0 85.292655
35870.0 85.310944
35880.0 85.349753
35890.0 85.400270
35900.0 85.435246
35910.0 85.478960
35920.0 85.505332
35930.0 85.543528
35940.0 85.578645
35950.0 85.616906
35960.0 85.643272
35970.0 85.675002
35980.0 85.721555
35990.0 85.762269
36000.0 85.794682
36010.0 85.824664
36020.0 85.868678
36030.0 85.898104
36040.0 85.933724
36050.0 85.968616
36060.0 86.004376
36070.0 86.034853
36080.0 86.069606
36090.0 86.102781
36100.0 86.119191
36110.0 86.145293
36120.0 86.174863
36130.0 86.210450
36140.0 86.223597
36150.0 86.260838
36160.0 86.297225
36170.0 86.315557
36180.0 86.349970
36190.0 86.395884
36200.0 86.427430
36210.0 86.451193
36220.0 86.481803
36230.0 86.503455
36240.0 86.538385
36250.0 86.576866
36260.0 86.597348
36270.0 86.625355
36280.0 86.639206
36290.0 86.666766
36300.0 86.701756
36310.0 86.729717
36320.0 86.754571
36330.0 86.772987
36340.0 86.798965
36350.0 86.828326
36360.0 86.860758
36370.0 86.881425
36380.0 86.912484
36390.0 86.948603
36400.0 86.972919
36410.0 87.000943
36420.0 87.029484
36430.0 87.054807
36440.0 87.091271
36450.0 87.116472
36460.0 87.138583
36470.0 87.181185
36480.0 87.202655
36490.0 87.227007
36500.0 87.258745
36510.0 87.292935
36520.0 87.326963
36530.0 87.347325
36540.0 87.380087
36550.0 87.411501
36560.0 87.432381
36570.0 87.458186
36580.0 87.488688
36590.0 87.523160
36600.0 87.557038
36610.0 87.582495
36620.0 87.600397
36630.0 87.614739
36640.0 87.635672
36650.0 87.651395
36660.0 87.671482
36670.0 87.687293
36680.0 87.705042
36690.0 87.731513
36700.0 87.747072
36710.0 87.756669
36720.0 87.768988
36730.0 87.788363
36740.0 87.792145
36750.0 87.817822
36760.0 87.828685
36770.0 87.848960
36780.0 87.868274
36790.0 87.884434
36800.0 87.890360
36810.0 87.908261
36820.0 87.931069
36830.0 87.946155
36840.0 87.955988
36850.0 87.965140
36860.0 87.978994
36870.0 87.990579
36880.0 87.999840
36890.0 88.015783
36900.0 88.035174
36910.0 88.050553
36920.0 88.074395
36930.0 88.081283
36940.0 88.088136
36950.0 88.095526
36960.0 88.114353
36970.0 88.123899
36980.0 88.124292
36990.0 88.140328
37000.0 88.155755
37010.0 88.150345
37020.0 88.146155
37030.0 88.162370
37040.0 88.173467
37050.0 88.171532
37060.0 88.172321
37070.0 88.186860
37080.0 88.191784
37090.0 88.209710
37100.0 88.219787
37110.0 88.233618
37120.0 88.245562
37130.0 88.249476
37140.0 88.252908
37150.0 88.241078
37160.0 88.252091
37170.0 88.263623
37180.0 88.280056
37190.0 88.290014
37200.0 88.301248
37210.0 88.322168
37220.0 88.328707
37230.0 88.335862
37240.0 88.342612
37250.0 88.367369
37260.0 88.393796
37270.0 88.407229
37280.0 88.414447
37290.0 88.423794
37300.0 88.434404
37310.0 88.437273
37320.0 88.466836
37330.0 88.497415
37340.0 88.524669
37350.0 88.544723
37360.0 88.563191
37370.0 88.584343
37380.0 88.604844
37390.0 88.630549
37400.0 88.646567
37410.0 88.656760
37420.0 88.666734
37430.0 88.689289
37440.0 88.707991
37450.0 88.745150
37460.0 88.758613
37470.0 88.788853
37480.0 88.806769
37490.0 88.828476
37500.0 88.848208
37510.0 88.875065
37520.0 88.897670
37530.0 88.925203
37540.0 88.940360
37550.0 88.969817
37560.0 88.991846
37570.0 89.021052
37580.0 89.041800
37590.0 89.046069
37600.0 89.068436
37610.0 89.085075
37620.0 89.103489
37630.0 89.123974
37640.0 89.141304
37650.0 89.159958
37660.0 89.176499
37670.0 89.200011
37680.0 89.227441
37690.0 89.247281
37700.0 89.266879
37710.0 89.281534
37720.0 89.306815
37730.0 89.327343
37740.0 89.342908
37750.0 89.351971
37760.0 89.382774
37770.0 89.409557
37780.0 89.429986
37790.0 89.450414
37800.0 89.465816
37810.0 89.479645
37820.0 89.507579
37830.0 89.514193
37840.0 89.547649
37850.0 89.570603
37860.0 89.588058
37870.0 89.611122
37880.0 89.636011
37890.0 89.654073
37900.0 89.676944
37910.0 89.685454
37920.0 89.705697
37930.0 89.721571
37940.0 89.749252
37950.0 89.758046
37960.0 89.785786
37970.0 89.814509
37980.0 89.835505
37990.0 89.857098
38000.0 89.872700
38010.0 89.883811
38020.0 89.897325
38030.0 89.917363
38040.0 89.924658
38050.0 89.930213
38060.0 89.945658
38070.0 89.951686
38080.0 89.969055
38090.0 89.983112
38100.0 89.982363
38110.0 89.998357
38120.0 90.006406
38130.0 90.014728
38140.0 90.020756
38150.0 90.026726
38160.0 90.039987
38170.0 90.044637
38180.0 90.047325
38190.0 90.050952
38200.0 90.059739
38210.0 90.073215
38220.0 90.076915
38230.0 90.084103
38240.0 90.093248
38250.0 90.104563
38260.0 90.129395
38270.0 90.158686
38280.0 90.161066
38290.0 90.166465
38300.0 90.173712
38310.0 90.180827
38320.0 90.195083
38330.0 90.194382
38340.0 90.222911
38350.0 90.225103
38360.0 90.239898
38370.0 90.250890
38380.0 90.275953
38390.0 90.297752
38400.0 90.323759
38410.0 90.336887
38420.0 90.341734
38430.0 90.352128
38440.0 90.364972
38450.0 90.372626
38460.0 90.394880
38470.0 90.414689
38480.0 90.433937
38490.0 90.444768
38500.0 90.472823
38510.0 90.486603
38520.0 90.504844
38530.0 90.513798
38540.0 90.530348
38550.0 90.551482
38560.0 90.563921
38570.0 90.568704
38580.0 90.582288
38590.0 90.602208
38600.0 90.626481
38610.0 90.647061
38620.0 90.662341
38630.0 90.688902
38640.0 90.707885
38650.0 90.720591
38660.0 90.739661
38670.0 90.757929
38680.0 90.778190
38690.0 90.790233
38700.0 90.792064
38710.0 90.812718
38720.0 90.830836
38730.0 90.858042
38740.0 90.869209
38750.0 90.873125
38760.0 90.889504
38770.0 90.895153
38780.0 90.918188
38790.0 90.946013
38800.0 90.968540
38810.0 90.998454
38820.0 91.022651
38830.0 91.052860
38840.0 91.077374
38850.0 91.088415
38860.0 91.105592
38870.0 91.123402
38880.0 91.137551
38890.0 91.148993
38900.0 91.174920
38910.0 91.189429
38920.0 91.227259
38930.0 91.246810
38940.0 91.271026
38950.0 91.284074
38960.0 91.295284
38970.0 91.326572
38980.0 91.347994
38990.0 91.376317
39000.0 91.408609
39010.0 91.422515
39020.0 91.454741
39030.0 91.474591
39040.0 91.488617
39050.0 91.492439
39060.0 91.520530
39070.0 91.554537
39080.0 91.590319
39090.0 91.620054
39100.0 91.641494
39110.0 91.666015
39120.0 91.703235
39130.0 91.713156
39140.0 91.742098
39150.0 91.770096
39160.0 91.804587
39170.0 91.836149
39180.0 91.864205
39190.0 91.885200
39200.0 91.895906
39210.0 91.932737
39220.0 91.963344
39230.0 91.981447
39240.0 92.012590
39250.0 92.029946
39260.0 92.058897
39270.0 92.076644
39280.0 92.097871
39290.0 92.123010
39300.0 92.141765
39310.0 92.170926
39320.0 92.190492
39330.0 92.199761
39340.0 92.233428
39350.0 92.265909
39360.0 92.290548
39370.0 92.314326
39380.0 92.344934
39390.0 92.376629
39400.0 92.403452
39410.0 92.438232
39420.0 92.463841
39430.0 92.481001
39440.0 92.508022
39450.0 92.524630
39460.0 92.543940
39470.0 92.557650
39480.0 92.594501
39490.0 92.619905
39500.0 92.640823
39510.0 92.662840
39520.0 92.699011
39530.0 92.720742
39540.0 92.763643
39550.0 92.793380
39560.0 92.822604
39570.0 92.855260
39580.0 92.877469
39590.0 92.906339
39600.0 92.923176
39610.0 92.948238
39620.0 92.982719
39630.0 93.001710
39640.0 93.019246
39650.0 93.044000
39660.0 93.082671
39670.0 93.108235
39680.0 93.152219
39690.0 93.186663
39700.0 93.216577
39710.0 93.250174
39720.0 93.277813
39730.0 93.306171
39740.0 93.339776
39750.0 93.371280
39760.0 93.409295
39770.0 93.426808
39780.0 93.462576
39790.0 93.490802
39800.0 93.511973
39810.0 93.538315
39820.0 93.552309
39830.0 93.583476
39840.0 93.606000
39850.0 93.635958
39860.0 93.659275
39870.0 93.685967
39880.0 93.719376
39890.0 93.748840
39900.0 93.789328
39910.0 93.824441
39920.0 93.856338
39930.0 93.872186
39940.0 93.907625
39950.0 93.933451
39960.0 93.971125
39970.0 94.005559
39980.0 94.033603
39990.0 94.061102
40000.0 94.099222
40010.0 94.133426
40020.0 94.155308
40030.0 94.179961
40040.0 94.205706
40050.0 94.224047
40060.0 94.256184
40070.0 94.294685
40080.0 94.324925
40090.0 94.350284
40100.0 94.383460
40110.0 94.412348
40120.0 94.438718
40130.0 94.455957
40140.0 94.481901
40150.0 94.512797
40160.0 94.545186
40170.0 94.563594
40180.0 94.593735
40190.0 94.608968
40200.0 94.640688
40210.0 94.673331
40220.0 94.695964
40230.0 94.712800
40240.0 94.732470
40250.0 94.746434
40260.0 94.777741
40270.0 94.807066
40280.0 94.840831
40290.0 94.858350
40300.0 94.884036
40310.0 94.901726
40320.0 94.931247
40330.0 94.968755
40340.0 94.996968
40350.0 95.023161
40360.0 95.047509
40370.0 95.083782
40380.0 95.119388
40390.0 95.154621
40400.0 95.187727
40410.0 95.216149
40420.0 95.237252
40430.0 95.267673
40440.0 95.297089
40450.0 95.327762
40460.0 95.344365
40470.0 95.366838
40480.0 95.398655
40490.0 95.427611
40500.0 95.436818
40510.0 95.465902
40520.0 95.488794
40530.0 95.504562
40540.0 95.538657
40550.0 95.566035
40560.0 95.591067
40570.0 95.613550
40580.0 95.626478
40590.0 95.655856
40600.0 95.677478
40610.0 95.701905
40620.0 95.727751
40630.0 95.749997
40640.0 95.765597
40650.0 95.769482
40660.0 95.762063
40670.0 95.781069
40680.0 95.789157
40690.0 95.806189
40700.0 95.826677
40710.0 95.854786
40720.0 95.869503
40730.0 95.875457
40740.0 95.889199
40750.0 95.902311
40760.0 95.906462
40770.0 95.914537
40780.0 95.931981
40790.0 95.935859
40800.0 95.939890
40810.0 95.935932
40820.0 95.950371
40830.0 95.951684
40840.0 95.949844
40850.0 95.953841
40860.0 95.954854
40870.0 95.968879
40880.0 95.972314
40890.0 95.994031
40900.0 96.015394
40910.0 96.041518
40920.0 96.048842
40930.0 96.057157
40940.0 96.074884
40950.0 96.096342
40960.0 96.107326
40970.0 96.124370
40980.0 96.152325
40990.0 96.167904
41000.0 96.180870
41010.0 96.196397
41020.0 96.210208
41030.0 96.223918
41040.0 96.237574
41050.0 96.253794
41060.0 96.275217
41070.0 96.283581
41080.0 96.291483
41090.0 96.309717
41100.0 96.308774
41110.0 96.314880
41120.0 96.315410
41130.0 96.327020
41140.0 96.331043
41150.0 96.334794
41160.0 96.338092
41170.0 96.350329
41180.0 96.340187
41190.0 96.349534
41200.0 96.362037
41210.0 96.364351
41220.0 96.357623
41230.0 96.354794
41240.0 96.357496
41250.0 96.353201
41260.0 96.350283
41270.0 96.358558
41280.0 96.357156
41290.0 96.361545
41300.0 96.367036
41310.0 96.372680
41320.0 96.377441
41330.0 96.384925
41340.0 96.368271
41350.0 96.372893
41360.0 96.381464
41370.0 96.369793
41380.0 96.377632
41390.0 96.381912
41400.0 96.389259
41410.0 96.395202
41420.0 96.400778
41430.0 96.412837
41440.0 96.412871
41450.0 96.422759
41460.0 96.437107
41470.0 96.449762
41480.0 96.444720
41490.0 96.460952
41500.0 96.463476
41510.0 96.478244
41520.0 96.481947
41530.0 96.479465
41540.0 96.484300
41550.0 96.488606
41560.0 96.494709
41570.0 96.511176
41580.0 96.519310
41590.0 96.524079
41600.0 96.546471
41610.0 96.554671
41620.0 96.563752
41630.0 96.570627
41640.0 96.569343
41650.0 96.573817
41660.0 96.594223
41670.0 96.601277
41680.0 96.610772
41690.0 96.614445
41700.0 96.623404
41710.0 96.634771
41720.0 96.657063
41730.0 96.674185
41740.0 96.681719
41750.0 96.692297
41760.0 96.707497
41770.0 96.722983
41780.0 96.740643
41790.0 96.739456
41800.0 96.743435
41810.0 96.759266
41820.0 96.766863
41830.0 96.782189
41840.0 96.791937
41850.0 96.803921
41860.0 96.817305
41870.0 96.830611
41880.0 96.840977
41890.0 96.848510
41900.0 96.853490
41910.0 96.861099
41920.0 96.859973
41930.0 96.872037
41940.0 96.875407
41950.0 96.878928
41960.0 96.892043
41970.0 96.902020
41980.0 96.906485
41990.0 96.898389
42000.0 96.900940
42010.0 96.913895
42020.0 96.920023
42030.0 96.929915
42040.0 96.927942
42050.0 96.935174
42060.0 96.938305
42070.0 96.950086
42080.0 96.967439
42090.0 96.964819
42100.0 96.979115
42110.0 96.983542
42120.0 96.978473
42130.0 96.993572
42140.0 96.998597
42150.0 97.018316
42160.0 97.017891
42170.0 96.991747
42180.0 96.994580
42190.0 96.999147
42200.0 97.008207
42210.0 97.016326
42220.0 97.012445
42230.0 97.012652
42240.0 97.004439
42250.0 97.019979
42260.0 97.025502
42270.0 97.035108
42280.0 97.036826
42290.0 97.038821
42300.0 97.038902
42310.0 97.041091
42320.0 97.053977
42330.0 97.062966
42340.0 97.059630
42350.0 97.062562
42360.0 97.058692
42370.0 97.069614
42380.0 97.059512
42390.0 97.053332
42400.0 97.052005
42410.0 97.046197
42420.0 97.027281
42430.0 97.027351
42440.0 97.027543
42450.0 97.025140
42460.0 97.018482
42470.0 97.023055
42480.0 97.022455
42490.0 97.020552
42500.0 97.015269
42510.0 97.006236
42520.0 97.003633
42530.0 96.993225
42540.0 96.980700
42550.0 96.956735
42560.0 96.958851
42570.0 96.958595
42580.0 96.956622
42590.0 96.941672
42600.0 96.930263
42610.0 96.930590
42620.0 96.934286
42630.0 96.927135
42640.0 96.923299
42650.0 96.916357
42660.0 96.900161
42670.0 96.887003
42680.0 96.892923
42690.0 96.889843
42700.0 96.892105
42710.0 96.900670
42720.0 96.902598
42730.0 96.902752
42740.0 96.907188
42750.0 96.912308
42760.0 96.901543
42770.0 96.912262
42780.0 96.920231
42790.0 96.919002
42800.0 96.922432
42810.0 96.914501
42820.0 96.916261
42830.0 96.906803
42840.0 96.906848
42850.0 96.909161
42860.0 96.911696
42870.0 96.912003
42880.0 96.906527
42890.0 96.903166
42900.0 96.890526
42910.0 96.900106
42920.0 96.906706
42930.0 96.898277
42940.0 96.906267
42950.0 96.906462
42960.0 96.899890
42970.0 96.904337
42980.0 96.897525
42990.0 96.896786
43000.0 96.898948
43010.0 96.906290
43020.0 96.912969
43030.0 96.918652
43040.0 96.917121
43050.0 96.913981
43060.0 96.905709
43070.0 96.898651
43080.0 96.898501
43090.0 96.905848
43100.0 96.905555
43110.0 96.921377
43120.0 96.913182
43130.0 96.916415
43140.0 96.917964
43150.0 96.921187
43160.0 96.928649
43170.0 96.931374
43180.0 96.935644
43190.0 96.923455
43200.0 96.914175
43210.0 96.918457
43220.0 96.914623
43230.0 96.902025
43240.0 96.890294
43250.0 96.884207
43260.0 96.889313
43270.0 96.888457
43280.0 96.889301
43290.0 96.872075
43300.0 96.861898
43310.0 96.868397
43320.0 96.866780
43330.0 96.864957
43340.0 96.864675
43350.0 96.856877
43360.0 96.862325
43370.0 96.846843
43380.0 96.840081
43390.0 96.831845
43400.0 96.815635
43410.0 96.814958
43420.0 96.798122
43430.0 96.773986
43440.0 96.757176
43450.0 96.755295
43460.0 96.738340
43470.0 96.737633
43480.0 96.721810
43490.0 96.706948
43500.0 96.692839
43510.0 96.685978
43520.0 96.679656
43530.0 96.671889
43540.0 96.664896
43550.0 96.653609
43560.0 96.637408
43570.0 96.631885
43580.0 96.619712
43590.0 96.610491
43600.0 96.602254
43610.0 96.587717
43620.0 96.579070
43630.0 96.568954
43640.0 96.555522
43650.0 96.534137
43660.0 96.534777
43670.0 96.543048
43680.0 96.523424
43690.0 96.507102
43700.0 96.508072
43710.0 96.502195
43720.0 96.491893
43730.0 96.481566
43740.0 96.460050
43750.0 96.449309
43760.0 96.454473
43770.0 96.438556
43780.0 96.443691
43790.0 96.450750
43800.0 96.451755
43810.0 96.447883
43820.0 96.448640
43830.0 96.433155
43840.0 96.427480
43850.0 96.423908
43860.0 96.423159
43870.0 96.403182
43880.0 96.394456
43890.0 96.387461
43900.0 96.389246
43910.0 96.383841
43920.0 96.377900
43930.0 96.374177
43940.0 96.361678
43950.0 96.361469
43960.0 96.341774
43970.0 96.326492
43980.0 96.324962
43990.0 96.320508
44000.0 96.317725
44010.0 96.312275
44020.0 96.307790
44030.0 96.301889
44040.0 96.304383
44050.0 96.309059
44060.0 96.311064
44070.0 96.308436
44080.0 96.310542
44090.0 96.301331
44100.0 96.296742
44110.0 96.306242
44120.0 96.295922
44130.0 96.296207
44140.0 96.283276
44150.0 96.285599
44160.0 96.285100
44170.0 96.274712
44180.0 96.278719
44190.0 96.277013
44200.0 96.278522
44210.0 96.277503
44220.0 96.282161
44230.0 96.291234
44240.0 96.303989
44250.0 96.295375
44260.0 96.297105
44270.0 96.294531
44280.0 96.287450
44290.0 96.294824
44300.0 96.295168
44310.0 96.297879
44320.0 96.298042
44330.0 96.306418
44340.0 96.306166
44350.0 96.308176
44360.0 96.309789
44370.0 96.311899
44380.0 96.303934
44390.0 96.292188
44400.0 96.288429
44410.0 96.291105
44420.0 96.291763
44430.0 96.282587
44440.0 96.290591
44450.0 96.287958
44460.0 96.294917
44470.0 96.309880
44480.0 96.319540
44490.0 96.322232
44500.0 96.314508
44510.0 96.333055
44520.0 96.333438
44530.0 96.329659
44540.0 96.323967
44550.0 96.327266
44560.0 96.328978
44570.0 96.328872
44580.0 96.340543
44590.0 96.333936
44600.0 96.330127
44610.0 96.321724
44620.0 96.321710
44630.0 96.328462
44640.0 96.316858
44650.0 96.331587
44660.0 96.343978
44670.0 96.342348
44680.0 96.361387
44690.0 96.363772
44700.0 96.356010
44710.0 96.354847
44720.0 96.352372
44730.0 96.350728
44740.0 96.349760
44750.0 96.346490
44760.0 96.353719
44770.0 96.345139
44780.0 96.355483
44790.0 96.348531
44800.0 96.347426
44810.0 96.344948
44820.0 96.338910
44830.0 96.345675
44840.0 96.342590
44850.0 96.345647
44860.0 96.335535
44870.0 96.331791
44880.0 96.318248
44890.0 96.315887
44900.0 96.303456
44910.0 96.309657
44920.0 96.288597
44930.0 96.279815
44940.0 96.279664
44950.0 96.277794
44960.0 96.280981
44970.0 96.292303
44980.0 96.289770
44990.0 96.293951
45000.0 96.283416
45010.0 96.276134
45020.0 96.281572
45030.0 96.274711
45040.0 96.275255
45050.0 96.277922
45060.0 96.288518
45070.0 96.283800
45080.0 96.296194
45090.0 96.303665
45100.0 96.302550
45110.0 96.305949
45120.0 96.308580
45130.0 96.313337
45140.0 96.321123
45150.0 96.315905
45160.0 96.322485
45170.0 96.312987
45180.0 96.302465
45190.0 96.308908
45200.0 96.315828
45210.0 96.309558
45220.0 96.313010
45230.0 96.324719
45240.0 96.327101
45250.0 96.333870
45260.0 96.339830
45270.0 96.337190
45280.0 96.337427
45290.0 96.333403
45300.0 96.340779
45310.0 96.342288
45320.0 96.349116
45330.0 96.348690
45340.0 96.342735
45350.0 96.342498
45360.0 96.346860
45370.0 96.354744
45380.0 96.359263
45390.0 96.370662
45400.0 96.389574
45410.0 96.396480
45420.0 96.408234
45430.0 96.416058
45440.0 96.403131
45450.0 96.420620
45460.0 96.423519
45470.0 96.437594
45480.0 96.447605
45490.0 96.468428
45500.0 96.474684
45510.0 96.493551
45520.0 96.508167
45530.0 96.530447
45540.0 96.534020
45550.0 96.542181
45560.0 96.564058
45570.0 96.575951
45580.0 96.594857
45590.0 96.611087
45600.0 96.621112
45610.0 96.639450
45620.0 96.655083
45630.0 96.669896
45640.0 96.692259
45650.0 96.703820
45660.0 96.722848
45670.0 96.739387
45680.0 96.756260
45690.0 96.770871
45700.0 96.778995
45710.0 96.777017
45720.0 96.794969
45730.0 96.784665
45740.0 96.789918
45750.0 96.792029
45760.0 96.801281
45770.0 96.820561
45780.0 96.839626
45790.0 96.862555
45800.0 96.870796
45810.0 96.896127
45820.0 96.907637
45830.0 96.929825
45840.0 96.946331
45850.0 96.953758
45860.0 96.964486
45870.0 96.985683
45880.0 97.007968
45890.0 97.017512
45900.0 97.040021
45910.0 97.037721
45920.0 97.045209
45930.0 97.056021
45940.0 97.071239
45950.0 97.094304
45960.0 97.107028
45970.0 97.136036
45980.0 97.153282
45990.0 97.172620
46000.0 97.182921
46010.0 97.199650
46020.0 97.226601
46030.0 97.232301
46040.0 97.251485
46050.0 97.264683
46060.0 97.288292
46070.0 97.297483
46080.0 97.315419
46090.0 97.331126
46100.0 97.329115
46110.0 97.345285
46120.0 97.366160
46130.0 97.373781
46140.0 97.394206
46150.0 97.405469
46160.0 97.424603
46170.0 97.434998
46180.0 97.452006
46190.0 97.460890
46200.0 97.467839
46210.0 97.478571
46220.0 97.506372
46230.0 97.537593
46240.0 97.541626
46250.0 97.558761
46260.0 97.566573
46270.0 97.585054
46280.0 97.605313
46290.0 97.625528
46300.0 97.651635
46310.0 97.669856
46320.0 97.686612
46330.0 97.712004
46340.0 97.737405
46350.0 97.758278
46360.0 97.776548
46370.0 97.811131
46380.0 97.834960
46390.0 97.861918
46400.0 97.868243
46410.0 97.886973
46420.0 97.902635
46430.0 97.936307
46440.0 97.957895
46450.0 97.968742
46460.0 97.991033
46470.0 98.007801
46480.0 98.027602
46490.0 98.051724
46500.0 98.063806
46510.0 98.088930
46520.0 98.103965
46530.0 98.124673
46540.0 98.140883
46550.0 98.163502
46560.0 98.189353
46570.0 98.202770
46580.0 98.222119
46590.0 98.235770
46600.0 98.241530
46610.0 98.262141
46620.0 98.292311
46630.0 98.305549
46640.0 98.329028
46650.0 98.347378
46660.0 98.356990
46670.0 98.369478
46680.0 98.390823
46690.0 98.414627
46700.0 98.442000
46710.0 98.454542
46720.0 98.477655
46730.0 98.494516
46740.0 98.512550
46750.0 98.536761
46760.0 98.557940
46770.0 98.578032
46780.0 98.588837
46790.0 98.602216
46800.0 98.612417
46810.0 98.632362
46820.0 98.653690
46830.0 98.672361
46840.0 98.691114
46850.0 98.709608
46860.0 98.718069
46870.0 98.729322
46880.0 98.749666
46890.0 98.771882
46900.0 98.797974
46910.0 98.822630
46920.0 98.841183
46930.0 98.850622
46940.0 98.877191
46950.0 98.894985
46960.0 98.908607
46970.0 98.929633
46980.0 98.946360
46990.0 98.971656
47000.0 98.993860
47010.0 99.019469
47020.0 99.029431
47030.0 99.044035
47040.0 99.065261
47050.0 99.082585
47060.0 99.095164
47070.0 99.115981
47080.0 99.134815
47090.0 99.154301
47100.0 99.166256
47110.0 99.181207
47120.0 99.197345
47130.0 99.209876
47140.0 99.230581
47150.0 99.240534
47160.0 99.262306
47170.0 99.296679
47180.0 99.330315
47190.0 99.358869
47200.0 99.367407
47210.0 99.387055
47220.0 99.403550
47230.0 99.426843
47240.0 99.462620
47250.0 99.484488
47260.0 99.510784
47270.0 99.532104
47280.0 99.561017
47290.0 99.563154
47300.0 99.584826
47310.0 99.594947
47320.0 99.610392
47330.0 99.634055
47340.0 99.654474
47350.0 99.675153
47360.0 99.693486
47370.0 99.716184
47380.0 99.742577
47390.0 99.759238
47400.0 99.777621
47410.0 99.796204
47420.0 99.820475
47430.0 99.842331
47440.0 99.857845
47450.0 99.874816
47460.0 99.899157
47470.0 99.924680
47480.0 99.943662
47490.0 99.955450
47500.0 99.976951
47510.0 99.974767
47520.0 99.987346
47530.0 100.005203
47540.0 100.012377
47550.0 100.021585
47560.0 100.031379
47570.0 100.035342
47580.0 100.045920
47590.0 100.055215
47600.0 100.062201
47610.0 100.079506
47620.0 100.099047
47630.0 100.108878
47640.0 100.116162
47650.0 100.128458
47660.0 100.135741
47670.0 100.144628
47680.0 100.155913
47690.0 100.163344
47700.0 100.178780
47710.0 100.180757
47720.0 100.193267
47730.0 100.203477
47740.0 100.197511
47750.0 100.209540
47760.0 100.224283
47770.0 100.244640
47780.0 100.252807
47790.0 100.267303
47800.0 100.271430
47810.0 100.277444
47820.0 100.277045
47830.0 100.288667
47840.0 100.293511
47850.0 100.305112
47860.0 100.325215
47870.0 100.346895
47880.0 100.349540
47890.0 100.360391
47900.0 100.372554
47910.0 100.388642
47920.0 100.397869
47930.0 100.418876
47940.0 100.430705
47950.0 100.433990
47960.0 100.431207
47970.0 100.440138
47980.0 100.434912
47990.0 100.441103
48000.0 100.435660
48010.0 100.447609
48020.0 100.453038
48030.0 100.460915
48040.0 100.480833
48050.0 100.491455
48060.0 100.501233
48070.0 100.507970
48080.0 100.510334
48090.0 100.511676
48100.0 100.521970
48110.0 100.516658
48120.0 100.534613
48130.0 100.546071
48140.0 100.560575
48150.0 100.578563
48160.0 100.588714
48170.0 100.590861
48180.0 100.595705
48190.0 100.595063
48200.0 100.596492
48210.0 100.594703
48220.0 100.599089
48230.0 100.611482
48240.0 100.619339
48250.0 100.622505
48260.0 100.625443
48270.0 100.634931
48280.0 100.645234
48290.0 100.647263
48300.0 100.660489
48310.0 100.665754
48320.0 100.670945
48330.0 100.668645
48340.0 100.667103
48350.0 100.668242
48360.0 100.680439
48370.0 100.677324
48380.0 100.683834
48390.0 100.686783
48400.0 100.685710
48410.0 100.704215
48420.0 100.717991
48430.0 100.730462
48440.0 100.739342
48450.0 100.742982
48460.0 100.749958
48470.0 100.747257
48480.0 100.754364
48490.0 100.769596
48500.0 100.779007
48510.0 100.797968
48520.0 100.803752
48530.0 100.811875
48540.0 100.825183
48550.0 100.838833
48560.0 100.854436
48570.0 100.871827
48580.0 100.874476
48590.0 100.873710
48600.0 100.885794
48610.0 100.893505
48620.0 100.911404
48630.0 100.928752
48640.0 100.942150
48650.0 100.950049
48660.0 100.946273
48670.0 100.952585
48680.0 100.962789
48690.0 100.969781
48700.0 100.975081
48710.0 100.986596
48720.0 100.995625
48730.0 101.008780
48740.0 101.023049
48750.0 101.046826
48760.0 101.062782
48770.0 101.080300
48780.0 101.082447
48790.0 101.097194
48800.0 101.102141
48810.0 101.116992
48820.0 101.111268
48830.0 101.116892
48840.0 101.136853
48850.0 101.143812
48860.0 101.152124
48870.0 101.168735
48880.0 101.188335
48890.0 101.184791
48900.0 101.198980
48910.0 101.207004
48920.0 101.211932
48930.0 101.222648
48940.0 101.238555
48950.0 101.253909
48960.0 101.253143
48970.0 101.266490
48980.0 101.285387
48990.0 101.303250
49000.0 101.320547
49010.0 101.331490
49020.0 101.345021
49030.0 101.352595
49040.0 101.357210
49050.0 101.378324
49060.0 101.380324
49070.0 101.385434
49080.0 101.402681
49090.0 101.417837
49100.0 101.436589
49110.0 101.448996
49120.0 101.462419
49130.0 101.475684
49140.0 101.497237
49150.0 101.489198
49160.0 101.504100
49170.0 101.521719
49180.0 101.545191
49190.0 101.558323
49200.0 101.573602
49210.0 101.587213
49220.0 101.602959
49230.0 101.620161
49240.0 101.636755
49250.0 101.653320
49260.0 101.665616
49270.0 101.689280
49280.0 101.712724
49290.0 101.725741
49300.0 101.742743
49310.0 101.763277
49320.0 101.781636
49330.0 101.783320
49340.0 101.800645
49350.0 101.816734
49360.0 101.834050
49370.0 101.845610
49380.0 101.857928
49390.0 101.870128
49400.0 101.891125
49410.0 101.907797
49420.0 101.918104
49430.0 101.933963
49440.0 101.941782
49450.0 101.948366
49460.0 101.975789
49470.0 101.983201
49480.0 101.999160
49490.0 102.013615
49500.0 102.021339
49510.0 102.038521
49520.0 102.047899
49530.0 102.065876
49540.0 102.092760
49550.0 102.101637
49560.0 102.128525
49570.0 102.150511
49580.0 102.154156
49590.0 102.164862
49600.0 102.188531
49610.0 102.215690
49620.0 102.228114
49630.0 102.244456
49640.0 102.256961
49650.0 102.278003
49660.0 102.298595
49670.0 102.325184
49680.0 102.357959
49690.0 102.361471
49700.0 102.377270
49710.0 102.393988
49720.0 102.409079
49730.0 102.423301
49740.0 102.437430
49750.0 102.445857
49760.0 102.448525
49770.0 102.474434
49780.0 102.489646
49790.0 102.507079
49800.0 102.511995
49810.0 102.513349
49820.0 102.529902
49830.0 102.540114
49840.0 102.558316
49850.0 102.568750
49860.0 102.585010
49870.0 102.591458
49880.0 102.599581
49890.0 102.612299
49900.0 102.634732
49910.0 102.645707
49920.0 102.656886
49930.0 102.663925
49940.0 102.679123
49950.0 102.688342
49960.0 102.703743
49970.0 102.715101
49980.0 102.731482
49990.0 102.751631
50000.0 102.753005
50010.0 102.771271
50020.0 102.785478
50030.0 102.806027
50040.0 102.824340
50050.0 102.827756
50060.0 102.830633
50070.0 102.848673
50080.0 102.852437
50090.0 102.871010
50100.0 102.879687
50110.0 102.907277
50120.0 102.928212
50130.0 102.946627
50140.0 102.960738
50150.0 102.975585
50160.0 102.991401
50170.0 103.000360
50180.0 103.019918
50190.0 103.022460
50200.0 103.036153
50210.0 103.060128
50220.0 103.079622
50230.0 103.100920
50240.0 103.113738
50250.0 103.120034
50260.0 103.148812
50270.0 103.170762
50280.0 103.185783
50290.0 103.199467
50300.0 103.224930
50310.0 103.233917
50320.0 103.251801
50330.0 103.265684
50340.0 103.289160
50350.0 103.300881
50360.0 103.312003
50370.0 103.332508
50380.0 103.352422
50390.0 103.372023
50400.0 103.394615
50410.0 103.398258
50420.0 103.418770
50430.0 103.438564
50440.0 103.449874
50450.0 103.461464
50460.0 103.475080
50470.0 103.496206
50480.0 103.506743
50490.0 103.525289
50500.0 103.546530
50510.0 103.552434
50520.0 103.559325
50530.0 103.577188
50540.0 103.585107
50550.0 103.608859
50560.0 103.628562
50570.0 103.638384
50580.0 103.650613
50590.0 103.672054
50600.0 103.678920
50610.0 103.695695
50620.0 103.709962
50630.0 103.720092
50640.0 103.735170
50650.0 103.747282
50660.0 103.757798
50670.0 103.772430
50680.0 103.781657
50690.0 103.807437
50700.0 103.826195
50710.0 103.840527
50720.0 103.840411
50730.0 103.852859
50740.0 103.873232
50750.0 103.888061
50760.0 103.902647
50770.0 103.922255
50780.0 103.937266
50790.0 103.936971
50800.0 103.963930
50810.0 103.976431
50820.0 103.987297
50830.0 104.013001
50840.0 104.021070
50850.0 104.037846
50860.0 104.056213
50870.0 104.071975
50880.0 104.081632
50890.0 104.104139
50900.0 104.106222
50910.0 104.122435
50920.0 104.136261
50930.0 104.127503
50940.0 104.138672
50950.0 104.143406
50960.0 104.166836
50970.0 104.189913
50980.0 104.209082
50990.0 104.224422
51000.0 104.238126
51010.0 104.253554
51020.0 104.277440
51030.0 104.297314
51040.0 104.317381
51050.0 104.337459
51060.0 104.361339
51070.0 104.384706
51080.0 104.409206
51090.0 104.422610
51100.0 104.444162
51110.0 104.463768
51120.0 104.477540
51130.0 104.499397
51140.0 104.516387
51150.0 104.528154
51160.0 104.542264
51170.0 104.558089
51180.0 104.581229
51190.0 104.588500
51200.0 104.611997
51210.0 104.626672
51220.0 104.643031
51230.0 104.655381
51240.0 104.678383
51250.0 104.695044
51260.0 104.715664
51270.0 104.728291
51280.0 104.749353
51290.0 104.765803
51300.0 104.786535
51310.0 104.805372
51320.0 104.820914
51330.0 104.847718
51340.0 104.868238
51350.0 104.881096
51360.0 104.902149
51370.0 104.926225
51380.0 104.931609
51390.0 104.951547
51400.0 104.976143
51410.0 104.994825
51420.0 105.014272
51430.0 105.037273
51440.0 105.056143
51450.0 105.065299
51460.0 105.081812
51470.0 105.098114
51480.0 105.102392
51490.0 105.104515
51500.0 105.124151
51510.0 105.143206
51520.0 105.169664
51530.0 105.191045
51540.0 105.207694
51550.0 105.233724
51560.0 105.249603
51570.0 105.275557
51580.0 105.288663
51590.0 105.305873
51600.0 105.330440
51610.0 105.344792
51620.0 105.357665
51630.0 105.372698
51640.0 105.387665
51650.0 105.406120
51660.0 105.424680
51670.0 105.436319
51680.0 105.462380
51690.0 105.471480
51700.0 105.490079
51710.0 105.507847
51720.0 105.515280
51730.0 105.519737
51740.0 105.536245
51750.0 105.552634
51760.0 105.570637
51770.0 105.586832
51780.0 105.610300
51790.0 105.621078
51800.0 105.620057
51810.0 105.625387
51820.0 105.635943
51830.0 105.646698
51840.0 105.662690
51850.0 105.669459
51860.0 105.683236
51870.0 105.690190
51880.0 105.715070
51890.0 105.735568
51900.0 105.752146
51910.0 105.774443
51920.0 105.792432
51930.0 105.818046
51940.0 105.833085
51950.0 105.853549
51960.0 105.871414
51970.0 105.889584
51980.0 105.909884
51990.0 105.930781
52000.0 105.944194
52010.0 105.957833
52020.0 105.979571
52030.0 105.990178
52040.0 106.011738
52050.0 106.033195
52060.0 106.060279
52070.0 106.079891
52080.0 106.100092
52090.0 106.120002
52100.0 106.145612
52110.0 106.163403
52120.0 106.179715
52130.0 106.183075
52140.0 106.206052
52150.0 106.229237
52160.0 106.244692
52170.0 106.269422
52180.0 106.294228
52190.0 106.318152
52200.0 106.338010
52210.0 106.352404
52220.0 106.370817
52230.0 106.392339
52240.0 106.415559
52250.0 106.438401
52260.0 106.460406
52270.0 106.476568
52280.0 106.501135
52290.0 106.511577
52300.0 106.531163
52310.0 106.538259
52320.0 106.557981
52330.0 106.557518
52340.0 106.580642
52350.0 106.597730
52360.0 106.621278
52370.0 106.644291
52380.0 106.665899
52390.0 106.683967
52400.0 106.702558
52410.0 106.729125
52420.0 106.748869
52430.0 106.770256
52440.0 106.779608
52450.0 106.795166
52460.0 106.811089
52470.0 106.835790
52480.0 106.860896
52490.0 106.891674
52500.0 106.910556
52510.0 106.931449
52520.0 106.948595
52530.0 106.963570
52540.0 106.983056
52550.0 106.998690
52560.0 107.022627
52570.0 107.041752
52580.0 107.056346
52590.0 107.076965
52600.0 107.085952
52610.0 107.106855
52620.0 107.123372
52630.0 107.151292
52640.0 107.165680
52650.0 107.177683
52660.0 107.195450
52670.0 107.212911
52680.0 107.229992
52690.0 107.238188
52700.0 107.245597
52710.0 107.256038
52720.0 107.272501
52730.0 107.286059
52740.0 107.302993
52750.0 107.304531
52760.0 107.315065
52770.0 107.331697
52780.0 107.343732
52790.0 107.351497
52800.0 107.362107
52810.0 107.379516
52820.0 107.389521
52830.0 107.399560
52840.0 107.419596
52850.0 107.423870
52860.0 107.418696
52870.0 107.432782
52880.0 107.448402
52890.0 107.476426
52900.0 107.483034
52910.0 107.498308
52920.0 107.500684
52930.0 107.501526
52940.0 107.508559
52950.0 107.522964
52960.0 107.534692
52970.0 107.549094
52980.0 107.556894
52990.0 107.556449
53000.0 107.555830
53010.0 107.569671
53020.0 107.577391
53030.0 107.573943
53040.0 107.587442
53050.0 107.591368
53060.0 107.602360
53070.0 107.623356
53080.0 107.632380
53090.0 107.644314
53100.0 107.662482
53110.0 107.664101
53120.0 107.674969
53130.0 107.699995
53140.0 107.716649
53150.0 107.740013
53160.0 107.765683
53170.0 107.770045
53180.0 107.790957
53190.0 107.803665
53200.0 107.827078
53210.0 107.850317
53220.0 107.875441
53230.0 107.892650
53240.0 107.907894
53250.0 107.919778
53260.0 107.917678
53270.0 107.942795
53280.0 107.963989
53290.0 107.983065
53300.0 107.999972
53310.0 108.021293
53320.0 108.035900
53330.0 108.065696
53340.0 108.086224
53350.0 108.110742
53360.0 108.136547
53370.0 108.157737
53380.0 108.182188
53390.0 108.201450
53400.0 108.229963
53410.0 108.240819
53420.0 108.261717
53430.0 108.286204
53440.0 108.308577
53450.0 108.331583
53460.0 108.347802
53470.0 108.365366
53480.0 108.392945
53490.0 108.413828
53500.0 108.438433
53510.0 108.452659
53520.0 108.476557
53530.0 108.487506
53540.0 108.515630
53550.0 108.525898
53560.0 108.535715
53570.0 108.549591
53580.0 108.564826
53590.0 108.569716
53600.0 108.583077
53610.0 108.600750
53620.0 108.607061
53630.0 108.626107
53640.0 108.643971
53650.0 108.658877
53660.0 108.672862
53670.0 108.686365
53680.0 108.694623
53690.0 108.716957
53700.0 108.736762
53710.0 108.757169
53720.0 108.775514
53730.0 108.793065
53740.0 108.808307
53750.0 108.815037
53760.0 108.830709
53770.0 108.844981
53780.0 108.857013
53790.0 108.878805
53800.0 108.900422
53810.0 108.912812
53820.0 108.917885
53830.0 108.933969
53840.0 108.939377
53850.0 108.955539
53860.0 108.971378
53870.0 108.991314
53880.0 108.998819
53890.0 109.014916
53900.0 109.022298
53910.0 109.032252
53920.0 109.042515
53930.0 109.064507
53940.0 109.075131
53950.0 109.082553
53960.0 109.111127
53970.0 109.132475
53980.0 109.141752
53990.0 109.148350
54000.0 109.163515
54010.0 109.169626
54020.0 109.191259
54030.0 109.193855
54040.0 109.207068
54050.0 109.210342
54060.0 109.218057
54070.0 109.226983
54080.0 109.229020
54090.0 109.239397
54100.0 109.250724
54110.0 109.267545
54120.0 109.291744
54130.0 109.309014
54140.0 109.324146
54150.0 109.337501
54160.0 109.356085
54170.0 109.373589
54180.0 109.377250
54190.0 109.387654
54200.0 109.395851
54210.0 109.403513
54220.0 109.405916
54230.0 109.423272
54240.0 109.432176
54250.0 109.447088
54260.0 109.457950
54270.0 109.464571
54280.0 109.477825
54290.0 109.478760
54300.0 109.490311
54310.0 109.494527
54320.0 109.510574
54330.0 109.514626
54340.0 109.524915
54350.0 109.532659
54360.0 109.536825
54370.0 109.549246
54380.0 109.561791
54390.0 109.572726
54400.0 109.579767
54410.0 109.579946
54420.0 109.591284
54430.0 109.601602
54440.0 109.606903
54450.0 109.609838
54460.0 109.625822
54470.0 109.658106
54480.0 109.673471
54490.0 109.696751
54500.0 109.720108
54510.0 109.732163
54520.0 109.759288
54530.0 109.775571
54540.0 109.791838
54550.0 109.806017
54560.0 109.822900
54570.0 109.853481
54580.0 109.865397
54590.0 109.887546
54600.0 109.909778
54610.0 109.926074
54620.0 109.949148
54630.0 109.970609
54640.0 109.993325
54650.0 110.009853
54660.0 110.030414
54670.0 110.044843
54680.0 110.051527
54690.0 110.051383
54700.0 110.066871
54710.0 110.082356
54720.0 110.106915
54730.0 110.127128
54740.0 110.143885
54750.0 110.157136
54760.0 110.177120
54770.0 110.185500
54780.0 110.207786
54790.0 110.233298
54800.0 110.253664
54810.0 110.269209
54820.0 110.280405
54830.0 110.299717
54840.0 110.316762
54850.0 110.327646
54860.0 110.342454
54870.0 110.358975
54880.0 110.378226
54890.0 110.388577
54900.0 110.402621
54910.0 110.425178
54920.0 110.439358
54930.0 110.457596
54940.0 110.465810
54950.0 110.474184
54960.0 110.486164
54970.0 110.505509
54980.0 110.516263
54990.0 110.526341
55000.0 110.534695
55010.0 110.559143
55020.0 110.570581
55030.0 110.583651
55040.0 110.597094
55050.0 110.619570
55060.0 110.625281
55070.0 110.625363
55080.0 110.635298
55090.0 110.639224
55100.0 110.656340
55110.0 110.659980
55120.0 110.650520
55130.0 110.662253
55140.0 110.672665
55150.0 110.680993
55160.0 110.680377
55170.0 110.682110
55180.0 110.686906
55190.0 110.688630
55200.0 110.711765
55210.0 110.733209
55220.0 110.752171
55230.0 110.764491
55240.0 110.779998
55250.0 110.788482
55260.0 110.797387
55270.0 110.810231
55280.0 110.820527
55290.0 110.835198
55300.0 110.837083
55310.0 110.848820
55320.0 110.852839
55330.0 110.853407
55340.0 110.855491
55350.0 110.856076
55360.0 110.864165
55370.0 110.877145
55380.0 110.883195
55390.0 110.891831
55400.0 110.897489
55410.0 110.915725
55420.0 110.924084
55430.0 110.944728
55440.0 110.958514
55450.0 110.981025
55460.0 110.990126
55470.0 110.999729
55480.0 111.002681
55490.0 111.018965
55500.0 111.040002
55510.0 111.047192
55520.0 111.056486
55530.0 111.072173
55540.0 111.075347
55550.0 111.079010
55560.0 111.092767
55570.0 111.097615
55580.0 111.116349
55590.0 111.134336
55600.0 111.146346
55610.0 111.158294
55620.0 111.170118
55630.0 111.178558
55640.0 111.196170
55650.0 111.205096
55660.0 111.222217
55670.0 111.223152
55680.0 111.224763
55690.0 111.238849
55700.0 111.248520
55710.0 111.256206
55720.0 111.266127
55730.0 111.266331
55740.0 111.280615
55750.0 111.286900
55760.0 111.290190
55770.0 111.300269
55780.0 111.310170
55790.0 111.314227
55800.0 111.336436
55810.0 111.348135
55820.0 111.361392
55830.0 111.355281
55840.0 111.360279
55850.0 111.369754
55860.0 111.379457
55870.0 111.384950
55880.0 111.395120
55890.0 111.409629
55900.0 111.432743
55910.0 111.443542
55920.0 111.448930
55930.0 111.467584
55940.0 111.479154
55950.0 111.479043
55960.0 111.495182
55970.0 111.496827
55980.0 111.506700
55990.0 111.511724
56000.0 111.532813
56010.0 111.548336
56020.0 111.573779
56030.0 111.592815
56040.0 111.607957
56050.0 111.620188
56060.0 111.634596
56070.0 111.656093
56080.0 111.666612
56090.0 111.676824
56100.0 111.697217
56110.0 111.710921
56120.0 111.715525
56130.0 111.715069
56140.0 111.728995
56150.0 111.738592
56160.0 111.757542
56170.0 111.768653
56180.0 111.773523
56190.0 111.789956
56200.0 111.789860
56210.0 111.805775
56220.0 111.816430
56230.0 111.828958
56240.0 111.823777
56250.0 111.840570
56260.0 111.841782
56270.0 111.857829
56280.0 111.869283
56290.0 111.878288
56300.0 111.878861
56310.0 111.887174
56320.0 111.907052
56330.0 111.916634
56340.0 111.918086
56350.0 111.914051
56360.0 111.922169
56370.0 111.922457
56380.0 111.938779
56390.0 111.939754
56400.0 111.950893
56410.0 111.953186
56420.0 111.959754
56430.0 111.970937
56440.0 111.985822
56450.0 111.997540
56460.0 112.000257
56470.0 112.008798
56480.0 112.023298
56490.0 112.031717
56500.0 112.032583
56510.0 112.034995
56520.0 112.040220
56530.0 112.041227
56540.0 112.050421
56550.0 112.055747
56560.0 112.061070
56570.0 112.053410
56580.0 112.060449
56590.0 112.072013
56600.0 112.092717
56610.0 112.105299
56620.0 112.115358
56630.0 112.121279
56640.0 112.126975
56650.0 112.135212
56660.0 112.134432
56670.0 112.143901
56680.0 112.156764
56690.0 112.164721
56700.0 112.174367
56710.0 112.195416
56720.0 112.201732
56730.0 112.207603
56740.0 112.214743
56750.0 112.224293
56760.0 112.238725
56770.0 112.245662
56780.0 112.246445
56790.0 112.252923
56800.0 112.255151
56810.0 112.259257
56820.0 112.248078
56830.0 112.243458
56840.0 112.255302
56850.0 112.259340
56860.0 112.269585
56870.0 112.269987
56880.0 112.278594
56890.0 112.279163
56900.0 112.292743
56910.0 112.289404
56920.0 112.281283
56930.0 112.288232
56940.0 112.292346
56950.0 112.290031
56960.0 112.305056
56970.0 112.316149
56980.0 112.319285
56990.0 112.316110
57000.0 112.328601
57010.0 112.323524
57020.0 112.330271
57030.0 112.330654
57040.0 112.341235
57050.0 112.349427
57060.0 112.352722
57070.0 112.357718
57080.0 112.362806
57090.0 112.365644
57100.0 112.371980
57110.0 112.378846
57120.0 112.388876
57130.0 112.385397
57140.0 112.384138
57150.0 112.394661
57160.0 112.395353
57170.0 112.401850
57180.0 112.404648
57190.0 112.403994
57200.0 112.410159
57210.0 112.414092
57220.0 112.430084
57230.0 112.440217
57240.0 112.448068
57250.0 112.454673
57260.0 112.451328
57270.0 112.460991
57280.0 112.454728
57290.0 112.448202
57300.0 112.453078
57310.0 112.450317
57320.0 112.452697
57330.0 112.454215
57340.0 112.444798
57350.0 112.431910
57360.0 112.427307
57370.0 112.413277
57380.0 112.409259
57390.0 112.394322
57400.0 112.385582
57410.0 112.387174
57420.0 112.386356
57430.0 112.376285
57440.0 112.383373
57450.0 112.390146
57460.0 112.392242
57470.0 112.392915
57480.0 112.383065
57490.0 112.357289
57500.0 112.351975
57510.0 112.354921
57520.0 112.354426
57530.0 112.355273
57540.0 112.354446
57550.0 112.347229
57560.0 112.349786
57570.0 112.352513
57580.0 112.360847
57590.0 112.357550
57600.0 112.349006
57610.0 112.353241
57620.0 112.357205
57630.0 112.352445
57640.0 112.352761
57650.0 112.347834
57660.0 112.354537
57670.0 112.342068
57680.0 112.345525
57690.0 112.335643
57700.0 112.344988
57710.0 112.340366
57720.0 112.332691
57730.0 112.325057
57740.0 112.320445
57750.0 112.323625
57760.0 112.337496
57770.0 112.337180
57780.0 112.344179
57790.0 112.343317
57800.0 112.346642
57810.0 112.351504
57820.0 112.356685
57830.0 112.343963
57840.0 112.338410
57850.0 112.339284
57860.0 112.332452
57870.0 112.328267
57880.0 112.332395
57890.0 112.336596
57900.0 112.348272
57910.0 112.336061
57920.0 112.339359
57930.0 112.351194
57940.0 112.358799
57950.0 112.355866
57960.0 112.356912
57970.0 112.355387
57980.0 112.352181
57990.0 112.341831
58000.0 112.347096
58010.0 112.351915
58020.0 112.354286
58030.0 112.354432
58040.0 112.352457
58050.0 112.343813
58060.0 112.346029
58070.0 112.339331
58080.0 112.353591
58090.0 112.362812
58100.0 112.361787
58110.0 112.363077
58120.0 112.363266
58130.0 112.363999
58140.0 112.357955
58150.0 112.363342
58160.0 112.369838
58170.0 112.370355
58180.0 112.378677
58190.0 112.371670
58200.0 112.377477
58210.0 112.379079
58220.0 112.377314
58230.0 112.375238
58240.0 112.386600
58250.0 112.391515
58260.0 112.378497
58270.0 112.382859
58280.0 112.391940
58290.0 112.401709
58300.0 112.399509
58310.0 112.393786
58320.0 112.382085
58330.0 112.390884
58340.0 112.393457
58350.0 112.388895
58360.0 112.390551
58370.0 112.385428
58380.0 112.375387
58390.0 112.361920
58400.0 112.360216
58410.0 112.350967
58420.0 112.349270
58430.0 112.339916
58440.0 112.338991
58450.0 112.343385
58460.0 112.332382
58470.0 112.329304
58480.0 112.323284
58490.0 112.312798
58500.0 112.305786
58510.0 112.306172
58520.0 112.296332
58530.0 112.282243
58540.0 112.270984
58550.0 112.264061
58560.0 112.253990
58570.0 112.247192
58580.0 112.248416
58590.0 112.241069
58600.0 112.230203
58610.0 112.223147
58620.0 112.216416
58630.0 112.217946
58640.0 112.200490
58650.0 112.190766
58660.0 112.181445
58670.0 112.179217
58680.0 112.161722
58690.0 112.144278
58700.0 112.132602
58710.0 112.127429
58720.0 112.112234
58730.0 112.107091
58740.0 112.091652
58750.0 112.092802
58760.0 112.074755
58770.0 112.071493
58780.0 112.055178
58790.0 112.049012
58800.0 112.038005
58810.0 112.023863
58820.0 112.005803
58830.0 111.993411
58840.0 111.977688
58850.0 111.960667
58860.0 111.956726
58870.0 111.945758
58880.0 111.930587
58890.0 111.924400
58900.0 111.904657
58910.0 111.895231
58920.0 111.875908
58930.0 111.860939
58940.0 111.841432
58950.0 111.825663
58960.0 111.817740
58970.0 111.803477
58980.0 111.785534
58990.0 111.776339
59000.0 111.750716
59010.0 111.741442
59020.0 111.720848
59030.0 111.718104
59040.0 111.705602
59050.0 111.698536
59060.0 111.679881
59070.0 111.667471
59080.0 111.659638
59090.0 111.638939
59100.0 111.625998
59110.0 111.601698
59120.0 111.587340
59130.0 111.582368
59140.0 111.578095
59150.0 111.574039
59160.0 111.553149
59170.0 111.536885
59180.0 111.526514
59190.0 111.509970
59200.0 111.505157
59210.0 111.494276
59220.0 111.484456
59230.0 111.468809
59240.0 111.454985
59250.0 111.445792
59260.0 111.428360
59270.0 111.406081
59280.0 111.392831
59290.0 111.377450
59300.0 111.365306
59310.0 111.355986
59320.0 111.335904
59330.0 111.308463
59340.0 111.302394
59350.0 111.291511
59360.0 111.278517
59370.0 111.267348
59380.0 111.254500
59390.0 111.241731
59400.0 111.225281
59410.0 111.206649
59420.0 111.175465
59430.0 111.155068
59440.0 111.147511
59450.0 111.121148
59460.0 111.103050
59470.0 111.088546
59480.0 111.071075
59490.0 111.058865
59500.0 111.047964
59510.0 111.016848
59520.0 110.996525
59530.0 110.978341
59540.0 110.958581
59550.0 110.931435
59560.0 110.926443
59570.0 110.918681
59580.0 110.912324
59590.0 110.908442
59600.0 110.893219
59610.0 110.883004
59620.0 110.872445
59630.0 110.864131
59640.0 110.837352
59650.0 110.819723
59660.0 110.789229
59670.0 110.774316
59680.0 110.762997
59690.0 110.736565
59700.0 110.723399
59710.0 110.699080
59720.0 110.689846
59730.0 110.676710
59740.0 110.659647
59750.0 110.637831
59760.0 110.613160
59770.0 110.605266
59780.0 110.596572
59790.0 110.577242
59800.0 110.567258
59810.0 110.556793
59820.0 110.546280
59830.0 110.537274
59840.0 110.517150
59850.0 110.497887
59860.0 110.473072
59870.0 110.447774
59880.0 110.432049
59890.0 110.420271
59900.0 110.410167
59910.0 110.387002
59920.0 110.368070
59930.0 110.342004
59940.0 110.325940
59950.0 110.317377
59960.0 110.301361
59970.0 110.289717
59980.0 110.283100
59990.0 110.274342
60000.0 110.262204
60010.0 110.248056
60020.0 110.231505
60030.0 110.225583
60040.0 110.206793
60050.0 110.194499
60060.0 110.182501
60070.0 110.177464
60080.0 110.154601
60090.0 110.143436
60100.0 110.134209
60110.0 110.123585
60120.0 110.120184
60130.0 110.102724
60140.0 110.095090
60150.0 110.080394
60160.0 110.067428
60170.0 110.046249
60180.0 110.037295
60190.0 110.021911
60200.0 110.014306
60210.0 109.995107
60220.0 109.963706
60230.0 109.942582
60240.0 109.936210
60250.0 109.916611
60260.0 109.895394
60270.0 109.867542
60280.0 109.860259
60290.0 109.841704
60300.0 109.836171
60310.0 109.824372
60320.0 109.806668
60330.0 109.792894
60340.0 109.783216
60350.0 109.773890
60360.0 109.764356
60370.0 109.754717
60380.0 109.739678
60390.0 109.712569
60400.0 109.695127
60410.0 109.683808
60420.0 109.665447
60430.0 109.654192
60440.0 109.633135
60450.0 109.621525
60460.0 109.603200
60470.0 109.593679
60480.0 109.573499
60490.0 109.559146
60500.0 109.546257
60510.0 109.537992
60520.0 109.527232
60530.0 109.521196
60540.0 109.513469
60550.0 109.497703
60560.0 109.479702
60570.0 109.463935
60580.0 109.445684
60590.0 109.431420
60600.0 109.418572
60610.0 109.398567
60620.0 109.389100
60630.0 109.366950
60640.0 109.353894
60650.0 109.334489
60660.0 109.310578
60670.0 109.297926
60680.0 109.286169
60690.0 109.266562
60700.0 109.243108
60710.0 109.226089
60720.0 109.215678
60730.0 109.201085
60740.0 109.180936
60750.0 109.167412
60760.0 109.145170
60770.0 109.132392
60780.0 109.116351
60790.0 109.091349
60800.0 109.080018
60810.0 109.071851
60820.0 109.050514
60830.0 109.031293
60840.0 109.015350
60850.0 108.998532
60860.0 108.974925
60870.0 108.962196
60880.0 108.956987
60890.0 108.934452
60900.0 108.931346
60910.0 108.922637
60920.0 108.910316
60930.0 108.896375
60940.0 108.875545
60950.0 108.850577
60960.0 108.839586
60970.0 108.824588
60980.0 108.816208
60990.0 108.804238
61000.0 108.786602
61010.0 108.769259
61020.0 108.751778
61030.0 108.739477
61040.0 108.718277
61050.0 108.704246
61060.0 108.676473
61070.0 108.658702
61080.0 108.638674
61090.0 108.627645
61100.0 108.611125
61110.0 108.595342
61120.0 108.578583
61130.0 108.560049
61140.0 108.552341
61150.0 108.529469
61160.0 108.514531
61170.0 108.500157
61180.0 108.491513
61190.0 108.480290
61200.0 108.465385
61210.0 108.453394
61220.0 108.439935
61230.0 108.420838
61240.0 108.404602
61250.0 108.393895
61260.0 108.387030
61270.0 108.368230
61280.0 108.351086
61290.0 108.325492
61300.0 108.319047
61310.0 108.305589
61320.0 108.288476
61330.0 108.264786
61340.0 108.250548
61350.0 108.231397
61360.0 108.221978
61370.0 108.205756
61380.0 108.181710
61390.0 108.173449
61400.0 108.163937
61410.0 108.146929
61420.0 108.122897
61430.0 108.104823
61440.0 108.083943
61450.0 108.074039
61460.0 108.060406
61470.0 108.048185
61480.0 108.035010
61490.0 108.030098
61500.0 108.016587
61510.0 108.011783
61520.0 107.998637
61530.0 107.983719
61540.0 107.979563
61550.0 107.976754
61560.0 107.971879
61570.0 107.954900
61580.0 107.941672
61590.0 107.918887
61600.0 107.908869
61610.0 107.905062
61620.0 107.886943
61630.0 107.876237
61640.0 107.860433
61650.0 107.848852
61660.0 107.837304
61670.0 107.826589
61680.0 107.810544
61690.0 107.788368
61700.0 107.781964
61710.0 107.778475
61720.0 107.762615
61730.0 107.752122
61740.0 107.735304
61750.0 107.717015
61760.0 107.709706
61770.0 107.699944
61780.0 107.689387
61790.0 107.684660
61800.0 107.672910
61810.0 107.659505
61820.0 107.649066
61830.0 107.639262
61840.0 107.630678
61850.0 107.620544
61860.0 107.612360
61870.0 107.597078
61880.0 107.576305
61890.0 107.564442
61900.0 107.544836
61910.0 107.526082
61920.0 107.510077
61930.0 107.499487
61940.0 107.497762
61950.0 107.489534
61960.0 107.468661
61970.0 107.441962
61980.0 107.423131
61990.0 107.414791
62000.0 107.403689
62010.0 107.390033
62020.0 107.375584
62030.0 107.356066
62040.0 107.350465
62050.0 107.335263
62060.0 107.308168
62070.0 107.280011
62080.0 107.263545
62090.0 107.248869
62100.0 107.234070
62110.0 107.216813
62120.0 107.200209
62130.0 107.188559
62140.0 107.175342
62150.0 107.171461
62160.0 107.153498
62170.0 107.138762
62180.0 107.124273
62190.0 107.115643
62200.0 107.109520
62210.0 107.095930
62220.0 107.067410
62230.0 107.048408
62240.0 107.027785
62250.0 107.017019
62260.0 107.002937
62270.0 106.983583
62280.0 106.976466
62290.0 106.955775
62300.0 106.938904
62310.0 106.918653
62320.0 106.901913
62330.0 106.885498
62340.0 106.871929
62350.0 106.847084
62360.0 106.843132
62370.0 106.828246
62380.0 106.811898
62390.0 106.799116
62400.0 106.786076
62410.0 106.776486
62420.0 106.765655
62430.0 106.754992
62440.0 106.747542
62450.0 106.733087
62460.0 106.712938
62470.0 106.703198
62480.0 106.683092
62490.0 106.671481
62500.0 106.644708
62510.0 106.633501
62520.0 106.626682
62530.0 106.614121
62540.0 106.604258
62550.0 106.592623
62560.0 106.577884
62570.0 106.559338
62580.0 106.540935
62590.0 106.526333
62600.0 106.506772
62610.0 106.479842
62620.0 106.469096
62630.0 106.453029
62640.0 106.435926
62650.0 106.426055
62660.0 106.419370
62670.0 106.408391
62680.0 106.390584
62690.0 106.378726
62700.0 106.363398
62710.0 106.341575
62720.0 106.327243
62730.0 106.307836
62740.0 106.303581
62750.0 106.289905
62760.0 106.275939
62770.0 106.261671
62780.0 106.245466
62790.0 106.227218
62800.0 106.211315
62810.0 106.187947
62820.0 106.179049
62830.0 106.159408
62840.0 106.149857
62850.0 106.135345
62860.0 106.118985
62870.0 106.094709
62880.0 106.079238
62890.0 106.059103
62900.0 106.041074
62910.0 106.017677
62920.0 106.006246
62930.0 105.991019
62940.0 105.980596
62950.0 105.969886
62960.0 105.952314
62970.0 105.935068
62980.0 105.920129
62990.0 105.910049
63000.0 105.899929
63010.0 105.892694
63020.0 105.879661
63030.0 105.873044
63040.0 105.857986
63050.0 105.828462
63060.0 105.816558
63070.0 105.792684
63080.0 105.784426
63090.0 105.765651
63100.0 105.749619
63110.0 105.733805
63120.0 105.721723
63130.0 105.707385
63140.0 105.693428
63150.0 105.675700
63160.0 105.660977
63170.0 105.645998
63180.0 105.629516
63190.0 105.615286
63200.0 105.604044
63210.0 105.592700
63220.0 105.571616
63230.0 105.565453
63240.0 105.555622
63250.0 105.538973
63260.0 105.521090
63270.0 105.509565
63280.0 105.494703
63290.0 105.478749
63300.0 105.458036
63310.0 105.440373
63320.0 105.419933
63330.0 105.402846
63340.0 105.387729
63350.0 105.370249
63360.0 105.347723
63370.0 105.318855
63380.0 105.306158
63390.0 105.287951
63400.0 105.273473
63410.0 105.262252
63420.0 105.244525
63430.0 105.233378
63440.0 105.221803
63450.0 105.207003
63460.0 105.197248
63470.0 105.180987
63480.0 105.167914
63490.0 105.160301
63500.0 105.138050
63510.0 105.116748
63520.0 105.108321
63530.0 105.099242
63540.0 105.082970
63550.0 105.065117
63560.0 105.046038
63570.0 105.038671
63580.0 105.029795
63590.0 105.007971
63600.0 104.989823
63610.0 104.981803
63620.0 104.969583
63630.0 104.962286
63640.0 104.946437
63650.0 104.926451
63660.0 104.916965
63670.0 104.899483
63680.0 104.894827
63690.0 104.877279
63700.0 104.861051
63710.0 104.845410
63720.0 104.828992
63730.0 104.818121
63740.0 104.813155
63750.0 104.801310
63760.0 104.787769
63770.0 104.766005
63780.0 104.745383
63790.0 104.730344
63800.0 104.712099
63810.0 104.700245
63820.0 104.686297
63830.0 104.670781
63840.0 104.660194
63850.0 104.646258
63860.0 104.638775
63870.0 104.632348
63880.0 104.609265
63890.0 104.593389
63900.0 104.579500
63910.0 104.567111
63920.0 104.554969
63930.0 104.537560
63940.0 104.526928
63950.0 104.504421
63960.0 104.497273
63970.0 104.481457
63980.0 104.462510
63990.0 104.447358
64000.0 104.434522
64010.0 104.421694
64020.0 104.410073
64030.0 104.384841
64040.0 104.377603
64050.0 104.367014
64060.0 104.349776
64070.0 104.337480
64080.0 104.318449
64090.0 104.303322
64100.0 104.283787
64110.0 104.279454
64120.0 104.265964
64130.0 104.249684
64140.0 104.230210
64150.0 104.218749
64160.0 104.203752
64170.0 104.184102
64180.0 104.178069
64190.0 104.160980
64200.0 104.145970
64210.0 104.135995
64220.0 104.120729
64230.0 104.110821
64240.0 104.099440
64250.0 104.091952
64260.0 104.087094
64270.0 104.075633
64280.0 104.059311
64290.0 104.048531
64300.0 104.034632
64310.0 104.015922
64320.0 103.993604
64330.0 103.974223
64340.0 103.966698
64350.0 103.965542
64360.0 103.960662
64370.0 103.958730
64380.0 103.957420
64390.0 103.950458
64400.0 103.941352
64410.0 103.929451
64420.0 103.919478
64430.0 103.907805
64440.0 103.907351
64450.0 103.895719
64460.0 103.888046
64470.0 103.871271
64480.0 103.861489
64490.0 103.844251
64500.0 103.841745
64510.0 103.831722
64520.0 103.832570
64530.0 103.826629
64540.0 103.817207
64550.0 103.810144
64560.0 103.801404
64570.0 103.791411
64580.0 103.789080
64590.0 103.781207
64600.0 103.775942
64610.0 103.767878
64620.0 103.760998
64630.0 103.747449
64640.0 103.740464
64650.0 103.730028
64660.0 103.721214
64670.0 103.718256
64680.0 103.707216
64690.0 103.703803
64700.0 103.691697
64710.0 103.676165
64720.0 103.665272
64730.0 103.667979
64740.0 103.642716
64750.0 103.636959
64760.0 103.628416
64770.0 103.609196
64780.0 103.596886
64790.0 103.584553
64800.0 103.576613
64810.0 103.570001
64820.0 103.564850
64830.0 103.550442
64840.0 103.538866
64850.0 103.530501
64860.0 103.515819
64870.0 103.507936
64880.0 103.486724
64890.0 103.483618
64900.0 103.474263
64910.0 103.452484
64920.0 103.448914
64930.0 103.435587
64940.0 103.421221
64950.0 103.414348
64960.0 103.415042
64970.0 103.406752
64980.0 103.392204
64990.0 103.377691
65000.0 103.369152
65010.0 103.360187
65020.0 103.354339
65030.0 103.348965
65040.0 103.339011
65050.0 103.332008
65060.0 103.327677
65070.0 103.308043
65080.0 103.301532
65090.0 103.296820
65100.0 103.290834
65110.0 103.279537
65120.0 103.270048
65130.0 103.261288
65140.0 103.254894
65150.0 103.243081
65160.0 103.227056
65170.0 103.220161
65180.0 103.217137
65190.0 103.208511
65200.0 103.191092
65210.0 103.183725
65220.0 103.182227
65230.0 103.159109
65240.0 103.153297
65250.0 103.153958
65260.0 103.140017
65270.0 103.119850
65280.0 103.110248
65290.0 103.101195
65300.0 103.083589
65310.0 103.071927
65320.0 103.061082
65330.0 103.054809
65340.0 103.040735
65350.0 103.029795
65360.0 103.010078
65370.0 102.993708
65380.0 102.977475
65390.0 102.962553
65400.0 102.941310
65410.0 102.931046
65420.0 102.917141
65430.0 102.900401
65440.0 102.889834
65450.0 102.879059
65460.0 102.860390
65470.0 102.842589
65480.0 102.831161
65490.0 102.821284
65500.0 102.809241
65510.0 102.794226
65520.0 102.782106
65530.0 102.763609
65540.0 102.732005
65550.0 102.720575
65560.0 102.714906
65570.0 102.700861
65580.0 102.691175
65590.0 102.674702
65600.0 102.661568
65610.0 102.651131
65620.0 102.637466
65630.0 102.615910
65640.0 102.594455
65650.0 102.575117
65660.0 102.551544
65670.0 102.546208
65680.0 102.526676
65690.0 102.513376
65700.0 102.499801
65710.0 102.484519
65720.0 102.464446
65730.0 102.453638
65740.0 102.441308
65750.0 102.426041
65760.0 102.413769
65770.0 102.402936
65780.0 102.389076
65790.0 102.372285
65800.0 102.364542
65810.0 102.349203
65820.0 102.329280
65830.0 102.322169
65840.0 102.299964
65850.0 102.293213
65860.0 102.282771
65870.0 102.275107
65880.0 102.268973
65890.0 102.253590
65900.0 102.241750
65910.0 102.220751
65920.0 102.207863
65930.0 102.180199
65940.0 102.167926
65950.0 102.149170
65960.0 102.134011
65970.0 102.119972
65980.0 102.112753
65990.0 102.092087
66000.0 102.083064
66010.0 102.070674
66020.0 102.065654
66030.0 102.054590
66040.0 102.053764
66050.0 102.039574
66060.0 102.032349
66070.0 102.014438
66080.0 102.001069
66090.0 101.989806
66100.0 101.991351
66110.0 101.984101
66120.0 101.980831
66130.0 101.976546
66140.0 101.972297
66150.0 101.964970
66160.0 101.956198
66170.0 101.949291
66180.0 101.944160
66190.0 101.946612
66200.0 101.941189
66210.0 101.928390
66220.0 101.913417
66230.0 101.904451
66240.0 101.897380
66250.0 101.888362
66260.0 101.884074
66270.0 101.876480
66280.0 101.877526
66290.0 101.865981
66300.0 101.856439
66310.0 101.852838
66320.0 101.847837
66330.0 101.837034
66340.0 101.832050
66350.0 101.823680
66360.0 101.814098
66370.0 101.794977
66380.0 101.787599
66390.0 101.780529
66400.0 101.778101
66410.0 101.777124
66420.0 101.777800
66430.0 101.773575
66440.0 101.765484
66450.0 101.764871
66460.0 101.762294
66470.0 101.755020
66480.0 101.752524
66490.0 101.742165
66500.0 101.737302
66510.0 101.738127
66520.0 101.720369
66530.0 101.720288
66540.0 101.719509
66550.0 101.716114
66560.0 101.711865
66570.0 101.701272
66580.0 101.694232
66590.0 101.694270
66600.0 101.686746
66610.0 101.678021
66620.0 101.662434
66630.0 101.659789
66640.0 101.659557
66650.0 101.655725
66660.0 101.647362
66670.0 101.646030
66680.0 101.628378
66690.0 101.619570
66700.0 101.610484
66710.0 101.604443
66720.0 101.596167
66730.0 101.586804
66740.0 101.589738
66750.0 101.585899
66760.0 101.584554
66770.0 101.575743
66780.0 101.577322
66790.0 101.572464
66800.0 101.561425
66810.0 101.560671
66820.0 101.545873
66830.0 101.539167
66840.0 101.531922
66850.0 101.521158
66860.0 101.512928
66870.0 101.512299
66880.0 101.497683
66890.0 101.490045
66900.0 101.482782
66910.0 101.484013
66920.0 101.471677
66930.0 101.463184
66940.0 101.459439
66950.0 101.448033
66960.0 101.442889
66970.0 101.443321
66980.0 101.431294
66990.0 101.419110
67000.0 101.407410
67010.0 101.398655
67020.0 101.397229
67030.0 101.392603
67040.0 101.378054
67050.0 101.370017
67060.0 101.357651
67070.0 101.347350
67080.0 101.347492
67090.0 101.343854
67100.0 101.331144
67110.0 101.326576
67120.0 101.316394
67130.0 101.306388
67140.0 101.287075
67150.0 101.289038
67160.0 101.287216
67170.0 101.274720
67180.0 101.273663
67190.0 101.269185
67200.0 101.258651
67210.0 101.255286
67220.0 101.244944
67230.0 101.234828
67240.0 101.230706
67250.0 101.231271
67260.0 101.225881
67270.0 101.215181
67280.0 101.205440
67290.0 101.189745
67300.0 101.187289
67310.0 101.179094
67320.0 101.178836
67330.0 101.177911
67340.0 101.176975
67350.0 101.174298
67360.0 101.162783
67370.0 101.163655
67380.0 101.160934
67390.0 101.151721
67400.0 101.147486
67410.0 101.142546
67420.0 101.139248
67430.0 101.128896
67440.0 101.117884
67450.0 101.119278
67460.0 101.120397
67470.0 101.123025
67480.0 101.121229
67490.0 101.126405
67500.0 101.122103
67510.0 101.116112
67520.0 101.116466
67530.0 101.113566
67540.0 101.100468
67550.0 101.103374
67560.0 101.096468
67570.0 101.091176
67580.0 101.089949
67590.0 101.075837
67600.0 101.071936
67610.0 101.074555
67620.0 101.064744
67630.0 101.048802
67640.0 101.046891
67650.0 101.042347
67660.0 101.038983
67670.0 101.028760
67680.0 101.020345
67690.0 101.014107
67700.0 101.011171
67710.0 101.007912
67720.0 101.002364
67730.0 100.985001
67740.0 100.982433
67750.0 100.968166
67760.0 100.964502
67770.0 100.960629
67780.0 100.950177
67790.0 100.942409
67800.0 100.932402
67810.0 100.919615
67820.0 100.914438
67830.0 100.904499
67840.0 100.894767
67850.0 100.879371
67860.0 100.875490
67870.0 100.869656
67880.0 100.866614
67890.0 100.854651
67900.0 100.848034
67910.0 100.840618
67920.0 100.836453
67930.0 100.833484
67940.0 100.835946
67950.0 100.833735
67960.0 100.827172
67970.0 100.821737
67980.0 100.815046
67990.0 100.799205
68000.0 100.789772
68010.0 100.786591
68020.0 100.780888
68030.0 100.774325
68040.0 100.768048
68050.0 100.763369
68060.0 100.756403
68070.0 100.753851
68080.0 100.748177
68090.0 100.744253
68100.0 100.736058
68110.0 100.739375
68120.0 100.735095
68130.0 100.725861
68140.0 100.717758
68150.0 100.707075
68160.0 100.698495
68170.0 100.688618
68180.0 100.680601
68190.0 100.668274
68200.0 100.662408
68210.0 100.658187
68220.0 100.657090
68230.0 100.647765
68240.0 100.641978
68250.0 100.639155
68260.0 100.641944
68270.0 100.636196
68280.0 100.632179
68290.0 100.629032
68300.0 100.630053
68310.0 100.630806
68320.0 100.626069
68330.0 100.625137
68340.0 100.626056
68350.0 100.627106
68360.0 100.624905
68370.0 100.619045
68380.0 100.625724
68390.0 100.621402
68400.0 100.619773
68410.0 100.616999
68420.0 100.605890
68430.0 100.600999
68440.0 100.590646
68450.0 100.585248
68460.0 100.584108
68470.0 100.588950
68480.0 100.579529
68490.0 100.577862
68500.0 100.582239
68510.0 100.580035
68520.0 100.588085
68530.0 100.585531
68540.0 100.582028
68550.0 100.583055
68560.0 100.585101
68570.0 100.577728
68580.0 100.581342
68590.0 100.587783
68600.0 100.588031
68610.0 100.588275
68620.0 100.591996
68630.0 100.593311
68640.0 100.590514
68650.0 100.594850
68660.0 100.588697
68670.0 100.590810
68680.0 100.578118
68690.0 100.583092
68700.0 100.574128
68710.0 100.559663
68720.0 100.554042
68730.0 100.546950
68740.0 100.545143
68750.0 100.541259
68760.0 100.538605
68770.0 100.535630
68780.0 100.536473
68790.0 100.534095
68800.0 100.527784
68810.0 100.520432
68820.0 100.520598
68830.0 100.520179
68840.0 100.517490
68850.0 100.517395
68860.0 100.513120
68870.0 100.510710
68880.0 100.505172
68890.0 100.495431
68900.0 100.490522
68910.0 100.486953
68920.0 100.487191
68930.0 100.478169
68940.0 100.473697
68950.0 100.476192
68960.0 100.472233
68970.0 100.464117
68980.0 100.456601
68990.0 100.448907
69000.0 100.441276
69010.0 100.439287
69020.0 100.432438
69030.0 100.426682
69040.0 100.421166
69050.0 100.408548
69060.0 100.395814
69070.0 100.395855
69080.0 100.389903
69090.0 100.385269
69100.0 100.376185
69110.0 100.368565
69120.0 100.353247
69130.0 100.353887
69140.0 100.344932
69150.0 100.328958
69160.0 100.327338
69170.0 100.317760
69180.0 100.307930
69190.0 100.297974
69200.0 100.282673
69210.0 100.273654
69220.0 100.263719
69230.0 100.256346
69240.0 100.247033
69250.0 100.235192
69260.0 100.223389
69270.0 100.219711
69280.0 100.213956
69290.0 100.198206
69300.0 100.188352
69310.0 100.182651
69320.0 100.175441
69330.0 100.160817
69340.0 100.148101
69350.0 100.142879
69360.0 100.136785
69370.0 100.127416
69380.0 100.111955
69390.0 100.097976
69400.0 100.074065
69410.0 100.065224
69420.0 100.055491
69430.0 100.046566
69440.0 100.033969
69450.0 100.016564
69460.0 100.005899
69470.0 99.987900
69480.0 99.974976
69490.0 99.962410
69500.0 99.953341
69510.0 99.943362
69520.0 99.938569
69530.0 99.932079
69540.0 99.921619
69550.0 99.912809
69560.0 99.898755
69570.0 99.886950
69580.0 99.882340
69590.0 99.871561
69600.0 99.863893
69610.0 99.863226
69620.0 99.851543
69630.0 99.849064
69640.0 99.847648
69650.0 99.840113
69660.0 99.816015
69670.0 99.808991
69680.0 99.805403
69690.0 99.796775
69700.0 99.785734
69710.0 99.776273
69720.0 99.774774
69730.0 99.768390
69740.0 99.764780
69750.0 99.758790
69760.0 99.756117
69770.0 99.760108
69780.0 99.751667
69790.0 99.746136
69800.0 99.743716
69810.0 99.740777
69820.0 99.733140
69830.0 99.727509
69840.0 99.718593
69850.0 99.715858
69860.0 99.712947
69870.0 99.711115
69880.0 99.704632
69890.0 99.697326
69900.0 99.690329
69910.0 99.680852
69920.0 99.673819
69930.0 99.669156
69940.0 99.662613
69950.0 99.650853
69960.0 99.647893
69970.0 99.645882
69980.0 99.646100
69990.0 99.638656
70000.0 99.622655
70010.0 99.613623
70020.0 99.605211
70030.0 99.597244
70040.0 99.592427
70050.0 99.589735
70060.0 99.588043
70070.0 99.582321
70080.0 99.585480
70090.0 99.585129
70100.0 99.579709
70110.0 99.578403
70120.0 99.576720
70130.0 99.571369
70140.0 99.570299
70150.0 99.561995
70160.0 99.558744
70170.0 99.552884
70180.0 99.557084
70190.0 99.553874
70200.0 99.556677
70210.0 99.548962
70220.0 99.551211
70230.0 99.541931
70240.0 99.541146
70250.0 99.538812
70260.0 99.532393
70270.0 99.524739
70280.0 99.523850
70290.0 99.521527
70300.0 99.514909
70310.0 99.506565
70320.0 99.507077
70330.0 99.502374
70340.0 99.497591
70350.0 99.492976
70360.0 99.493742
70370.0 99.495120
70380.0 99.481355
70390.0 99.480643
70400.0 99.468960
70410.0 99.466032
70420.0 99.459488
70430.0 99.453944
70440.0 99.448402
70450.0 99.452693
70460.0 99.449421
70470.0 99.442070
70480.0 99.434966
70490.0 99.428670
70500.0 99.431460
70510.0 99.441663
70520.0 99.444008
70530.0 99.449086
70540.0 99.447869
70550.0 99.439556
70560.0 99.438697
70570.0 99.439294
70580.0 99.428934
70590.0 99.418237
70600.0 99.413771
70610.0 99.408741
70620.0 99.408329
70630.0 99.404399
70640.0 99.404472
70650.0 99.405006
70660.0 99.404484
70670.0 99.401385
70680.0 99.400070
70690.0 99.403023
70700.0 99.403577
70710.0 99.403985
70720.0 99.402369
70730.0 99.408141
70740.0 99.402877
70750.0 99.404926
70760.0 99.410991
70770.0 99.415413
70780.0 99.414536
70790.0 99.416312
70800.0 99.423567
70810.0 99.427966
70820.0 99.438181
70830.0 99.449471
70840.0 99.452998
70850.0 99.446638
70860.0 99.453608
70870.0 99.457188
70880.0 99.463408
70890.0 99.465018
70900.0 99.470932
70910.0 99.478605
70920.0 99.478462
70930.0 99.483809
70940.0 99.484459
70950.0 99.480644
70960.0 99.475879
70970.0 99.476834
70980.0 99.480734
70990.0 99.484452
71000.0 99.479562
71010.0 99.477919
71020.0 99.477038
71030.0 99.480216
71040.0 99.478903
71050.0 99.484373
71060.0 99.490809
71070.0 99.492995
71080.0 99.482594
71090.0 99.488222
71100.0 99.485536
71110.0 99.490413
71120.0 99.493396
71130.0 99.495046
71140.0 99.500461
71150.0 99.506423
71160.0 99.503376
71170.0 99.507850
71180.0 99.514229
71190.0 99.525975
71200.0 99.532137
71210.0 99.532148
71220.0 99.542084
71230.0 99.552146
71240.0 99.560188
71250.0 99.563663
71260.0 99.570899
71270.0 99.577374
71280.0 99.572047
71290.0 99.579923
71300.0 99.586469
71310.0 99.590429
71320.0 99.602647
71330.0 99.608390
71340.0 99.614779
71350.0 99.619293
71360.0 99.627647
71370.0 99.629779
71380.0 99.636981
71390.0 99.647456
71400.0 99.651929
71410.0 99.650876
71420.0 99.657248
71430.0 99.664905
71440.0 99.664073
71450.0 99.666515
71460.0 99.677007
71470.0 99.686901
71480.0 99.697988
71490.0 99.701014
71500.0 99.701842
71510.0 99.700584
71520.0 99.709906
71530.0 99.715956
71540.0 99.726087
71550.0 99.736003
71560.0 99.736035
71570.0 99.735749
71580.0 99.741543
71590.0 99.748778
71600.0 99.757574
71610.0 99.756764
71620.0 99.764413
71630.0 99.774623
71640.0 99.781660
71650.0 99.795291
71660.0 99.801981
71670.0 99.813763
71680.0 99.819734
71690.0 99.825453
71700.0 99.820740
71710.0 99.819049
71720.0 99.825084
71730.0 99.826019
71740.0 99.831425
71750.0 99.831483
71760.0 99.836153
71770.0 99.842877
71780.0 99.848069
71790.0 99.861312
71800.0 99.878853
71810.0 99.885253
71820.0 99.886913
71830.0 99.893701
71840.0 99.909374
71850.0 99.912618
71860.0 99.928013
71870.0 99.933499
71880.0 99.945456
71890.0 99.950796
71900.0 99.957999
71910.0 99.972097
71920.0 99.979493
71930.0 99.997842
71940.0 100.011534
71950.0 100.018834
71960.0 100.021988
71970.0 100.036614
71980.0 100.034757
71990.0 100.043265
72000.0 100.054967
72010.0 100.065140
72020.0 100.077935
72030.0 100.078094
72040.0 100.087379
72050.0 100.097868
72060.0 100.100765
72070.0 100.111442
72080.0 100.121122
72090.0 100.134298
72100.0 100.149172
72110.0 100.153208
72120.0 100.172277
72130.0 100.189276
72140.0 100.200083
72150.0 100.209393
72160.0 100.216022
72170.0 100.227185
72180.0 100.231898
72190.0 100.242743
72200.0 100.255826
72210.0 100.256886
72220.0 100.261322
72230.0 100.277039
72240.0 100.289629
72250.0 100.291454
72260.0 100.299317
72270.0 100.311613
72280.0 100.322887
72290.0 100.339701
72300.0 100.353555
72310.0 100.364729
72320.0 100.383986
72330.0 100.397942
72340.0 100.410127
72350.0 100.428126
72360.0 100.441755
72370.0 100.454606
72380.0 100.467217
72390.0 100.482629
72400.0 100.496476
72410.0 100.515701
72420.0 100.523543
72430.0 100.527651
72440.0 100.543113
72450.0 100.556920
72460.0 100.567612
72470.0 100.576766
72480.0 100.590688
72490.0 100.601934
72500.0 100.621337
72510.0 100.637820
72520.0 100.649814
72530.0 100.657720
72540.0 100.672874
72550.0 100.684600
72560.0 100.697747
72570.0 100.717858
72580.0 100.734677
72590.0 100.745163
72600.0 100.764128
72610.0 100.782801
72620.0 100.798291
72630.0 100.808601
72640.0 100.815979
72650.0 100.835618
72660.0 100.843810
72670.0 100.857756
72680.0 100.861246
72690.0 100.876247
72700.0 100.893202
72710.0 100.902157
72720.0 100.918953
72730.0 100.926119
72740.0 100.938460
72750.0 100.946604
72760.0 100.960206
72770.0 100.976298
72780.0 100.992748
72790.0 101.004758
72800.0 101.006212
72810.0 101.024586
72820.0 101.031421
72830.0 101.038939
72840.0 101.050995
72850.0 101.055770
72860.0 101.062074
72870.0 101.072389
72880.0 101.077706
72890.0 101.094433
72900.0 101.107854
72910.0 101.119437
72920.0 101.136131
72930.0 101.144597
72940.0 101.152509
72950.0 101.171387
72960.0 101.188236
72970.0 101.197883
72980.0 101.207068
72990.0 101.225823
73000.0 101.243012
73010.0 101.257601
73020.0 101.275425
73030.0 101.285351
73040.0 101.286997
73050.0 101.299757
73060.0 101.302787
73070.0 101.316110
73080.0 101.321919
73090.0 101.328168
73100.0 101.339298
73110.0 101.359862
73120.0 101.369903
73130.0 101.385973
73140.0 101.393620
73150.0 101.404214
73160.0 101.419260
73170.0 101.432198
73180.0 101.441106
73190.0 101.449903
73200.0 101.454912
73210.0 101.461229
73220.0 101.467265
73230.0 101.477333
73240.0 101.491663
73250.0 101.504117
73260.0 101.511112
73270.0 101.518720
73280.0 101.525724
73290.0 101.540443
73300.0 101.548156
73310.0 101.558069
73320.0 101.571138
73330.0 101.573858
73340.0 101.579291
73350.0 101.589700
73360.0 101.595574
73370.0 101.598326
73380.0 101.600885
73390.0 101.609053
73400.0 101.617373
73410.0 101.619866
73420.0 101.619933
73430.0 101.623568
73440.0 101.626595
73450.0 101.628514
73460.0 101.632176
73470.0 101.645513
73480.0 101.650085
73490.0 101.648355
73500.0 101.658028
73510.0 101.663610
73520.0 101.665779
73530.0 101.676874
73540.0 101.688641
73550.0 101.692570
73560.0 101.697562
73570.0 101.703991
73580.0 101.704718
73590.0 101.705630
73600.0 101.711139
73610.0 101.720271
73620.0 101.725034
73630.0 101.722830
73640.0 101.718277
73650.0 101.731818
73660.0 101.730527
73670.0 101.734693
73680.0 101.735113
73690.0 101.739864
73700.0 101.743325
73710.0 101.744837
73720.0 101.757667
73730.0 101.759320
73740.0 101.773236
73750.0 101.783941
73760.0 101.792979
73770.0 101.799551
73780.0 101.803413
73790.0 101.809211
73800.0 101.815186
73810.0 101.823683
73820.0 101.830995
73830.0 101.834752
73840.0 101.839961
73850.0 101.847889
73860.0 101.854085
73870.0 101.864856
73880.0 101.865065
73890.0 101.873564
73900.0 101.879549
73910.0 101.887221
73920.0 101.899301
73930.0 101.906714
73940.0 101.912942
73950.0 101.924666
73960.0 101.931005
73970.0 101.938835
73980.0 101.946691
73990.0 101.955999
74000.0 101.965256
74010.0 101.969130
74020.0 101.977633
74030.0 101.987339
74040.0 101.993821
74050.0 101.997506
74060.0 102.007518
74070.0 102.020717
74080.0 102.029014
74090.0 102.043530
74100.0 102.057019
74110.0 102.066139
74120.0 102.076498
74130.0 102.076168
74140.0 102.079807
74150.0 102.091686
74160.0 102.104524
74170.0 102.112942
74180.0 102.131154
74190.0 102.138369
74200.0 102.152745
74210.0 102.163103
74220.0 102.169801
74230.0 102.180807
74240.0 102.185794
74250.0 102.202325
74260.0 102.219826
74270.0 102.235363
74280.0 102.250547
74290.0 102.256149
74300.0 102.264522
74310.0 102.275293
74320.0 102.286017
74330.0 102.291480
74340.0 102.306851
74350.0 102.313394
74360.0 102.326689
74370.0 102.341473
74380.0 102.341487
74390.0 102.353982
74400.0 102.361020
74410.0 102.375876
74420.0 102.386660
74430.0 102.393398
74440.0 102.409480
74450.0 102.426590
74460.0 102.436606
74470.0 102.441395
74480.0 102.453751
74490.0 102.469752
74500.0 102.482384
74510.0 102.490615
74520.0 102.500328
74530.0 102.516177
74540.0 102.525791
74550.0 102.534753
74560.0 102.540224
74570.0 102.544509
74580.0 102.544617
74590.0 102.551736
74600.0 102.554953
74610.0 102.561459
74620.0 102.566939
74630.0 102.573832
74640.0 102.580014
74650.0 102.590556
74660.0 102.606318
74670.0 102.613109
74680.0 102.619230
74690.0 102.621185
74700.0 102.626147
74710.0 102.635398
74720.0 102.647882
74730.0 102.660466
74740.0 102.673786
74750.0 102.684641
74760.0 102.689902
74770.0 102.695672
74780.0 102.702085
74790.0 102.708852
74800.0 102.720935
74810.0 102.728170
74820.0 102.743643
74830.0 102.755771
74840.0 102.766648
74850.0 102.772672
74860.0 102.779819
74870.0 102.795208
74880.0 102.808683
74890.0 102.817732
74900.0 102.819163
74910.0 102.823698
74920.0 102.832682
74930.0 102.841412
74940.0 102.853645
74950.0 102.861941
74960.0 102.876066
74970.0 102.885470
74980.0 102.886364
74990.0 102.898113
75000.0 102.904934
75010.0 102.912254
75020.0 102.923290
75030.0 102.935548
75040.0 102.940843
75050.0 102.951486
75060.0 102.952731
75070.0 102.958117
75080.0 102.968493
75090.0 102.981965
75100.0 103.000194
75110.0 103.013778
75120.0 103.022548
75130.0 103.034094
75140.0 103.042440
75150.0 103.058930
75160.0 103.070025
75170.0 103.080608
75180.0 103.102020
75190.0 103.110261
75200.0 103.119957
75210.0 103.127536
75220.0 103.133757
75230.0 103.140232
75240.0 103.150963
75250.0 103.165526
75260.0 103.177824
75270.0 103.184858
75280.0 103.197050
75290.0 103.211531
75300.0 103.224024
75310.0 103.229724
75320.0 103.233938
75330.0 103.242960
75340.0 103.251833
75350.0 103.260939
75360.0 103.268330
75370.0 103.277077
75380.0 103.292337
75390.0 103.298955
75400.0 103.297242
75410.0 103.301921
75420.0 103.320186
75430.0 103.328194
75440.0 103.329067
75450.0 103.340545
75460.0 103.351475
75470.0 103.354041
75480.0 103.363384
75490.0 103.367242
75500.0 103.373598
75510.0 103.381374
75520.0 103.387559
75530.0 103.390185
75540.0 103.401543
75550.0 103.412379
75560.0 103.414468
75570.0 103.419443
75580.0 103.425613
75590.0 103.427446
75600.0 103.436409
75610.0 103.442769
75620.0 103.449194
75630.0 103.462107
75640.0 103.467714
75650.0 103.470760
75660.0 103.470216
75670.0 103.478541
75680.0 103.488129
75690.0 103.490543
75700.0 103.498633
75710.0 103.502907
75720.0 103.519761
75730.0 103.526737
75740.0 103.534555
75750.0 103.534478
75760.0 103.543229
75770.0 103.549156
75780.0 103.559633
75790.0 103.566074
75800.0 103.575804
75810.0 103.587094
75820.0 103.594436
75830.0 103.611893
75840.0 103.608148
75850.0 103.621079
75860.0 103.629872
75870.0 103.638732
75880.0 103.649901
75890.0 103.659331
75900.0 103.667051
75910.0 103.681087
75920.0 103.687439
75930.0 103.695400
75940.0 103.703104
75950.0 103.699031
75960.0 103.698867
75970.0 103.707272
75980.0 103.717532
75990.0 103.723000
76000.0 103.730177
76010.0 103.743926
76020.0 103.748754
76030.0 103.765100
76040.0 103.778817
76050.0 103.792864
76060.0 103.791187
76070.0 103.806928
76080.0 103.815513
76090.0 103.824233
76100.0 103.837272
76110.0 103.837719
76120.0 103.843742
76130.0 103.857520
76140.0 103.866553
76150.0 103.875429
76160.0 103.889133
76170.0 103.903515
76180.0 103.916006
76190.0 103.923686
76200.0 103.929716
76210.0 103.937830
76220.0 103.947069
76230.0 103.957958
76240.0 103.965633
76250.0 103.964586
76260.0 103.973311
76270.0 103.974969
76280.0 103.980599
76290.0 103.985698
76300.0 103.988822
76310.0 103.987601
76320.0 103.988619
76330.0 103.995163
76340.0 103.997137
76350.0 104.005266
76360.0 103.999593
76370.0 104.007848
76380.0 104.011696
76390.0 104.015332
76400.0 104.017900
76410.0 104.018640
76420.0 104.018581
76430.0 104.017586
76440.0 104.018263
76450.0 104.007713
76460.0 104.005308
76470.0 104.006036
76480.0 104.006909
76490.0 104.010367
76500.0 104.013620
76510.0 104.015023
76520.0 104.020304
76530.0 104.023715
76540.0 104.018792
76550.0 104.023054
76560.0 104.019143
76570.0 104.008087
76580.0 104.014356
76590.0 104.018843
76600.0 104.017848
76610.0 104.018108
76620.0 104.014325
76630.0 104.018315
76640.0 104.019693
76650.0 104.017516
76660.0 104.013380
76670.0 104.015369
76680.0 104.020051
76690.0 104.028588
76700.0 104.028884
76710.0 104.030416
76720.0 104.033716
76730.0 104.035416
76740.0 104.040948
76750.0 104.038321
76760.0 104.045177
76770.0 104.044900
76780.0 104.038389
76790.0 104.048710
76800.0 104.055487
76810.0 104.056693
76820.0 104.056214
76830.0 104.055700
76840.0 104.052793
76850.0 104.036883
76860.0 104.034866
76870.0 104.040558
76880.0 104.044898
76890.0 104.036187
76900.0 104.031575
76910.0 104.032011
76920.0 104.033216
76930.0 104.033246
76940.0 104.026741
76950.0 104.030653
76960.0 104.040289
76970.0 104.041938
76980.0 104.050261
76990.0 104.055433
77000.0 104.063884
77010.0 104.073926
77020.0 104.076939
77030.0 104.079255
77040.0 104.078545
77050.0 104.082144
77060.0 104.087377
77070.0 104.095846
77080.0 104.106333
77090.0 104.116694
77100.0 104.113586
77110.0 104.121223
77120.0 104.127920
77130.0 104.138056
77140.0 104.151904
77150.0 104.158349
77160.0 104.160064
77170.0 104.172027
77180.0 104.176091
77190.0 104.190023
77200.0 104.203618
77210.0 104.210301
77220.0 104.221253
77230.0 104.233591
77240.0 104.247263
77250.0 104.258311
77260.0 104.279470
77270.0 104.289829
77280.0 104.303663
77290.0 104.317511
77300.0 104.321719
77310.0 104.334905
77320.0 104.337308
77330.0 104.341003
77340.0 104.349461
77350.0 104.360733
77360.0 104.365377
77370.0 104.365357
77380.0 104.374583
77390.0 104.380949
77400.0 104.394610
77410.0 104.400669
77420.0 104.406619
77430.0 104.418968
77440.0 104.420791
77450.0 104.430368
77460.0 104.433203
77470.0 104.437543
77480.0 104.445067
77490.0 104.440680
77500.0 104.444553
77510.0 104.446314
77520.0 104.450975
77530.0 104.448948
77540.0 104.458924
77550.0 104.455898
77560.0 104.459400
77570.0 104.465759
77580.0 104.474905
77590.0 104.484041
77600.0 104.491712
77610.0 104.496890
77620.0 104.505275
77630.0 104.515616
77640.0 104.527802
77650.0 104.530552
77660.0 104.538236
77670.0 104.539483
77680.0 104.543174
77690.0 104.541419
77700.0 104.548911
77710.0 104.555874
77720.0 104.563362
77730.0 104.571785
77740.0 104.567842
77750.0 104.565296
77760.0 104.564457
77770.0 104.563997
77780.0 104.563564
77790.0 104.563325
77800.0 104.564047
77810.0 104.567800
77820.0 104.572860
77830.0 104.572537
77840.0 104.572543
77850.0 104.580684
77860.0 104.567323
77870.0 104.571325
77880.0 104.572438
77890.0 104.562976
77900.0 104.566039
77910.0 104.570463
77920.0 104.576108
77930.0 104.577757
77940.0 104.576230
77950.0 104.582342
77960.0 104.581914
77970.0 104.585657
77980.0 104.591939
77990.0 104.594743
78000.0 104.590638
78010.0 104.592594
78020.0 104.588738
78030.0 104.597683
78040.0 104.596754
78050.0 104.596363
78060.0 104.603311
78070.0 104.607249
78080.0 104.609600
78090.0 104.613025
78100.0 104.614476
78110.0 104.609926
78120.0 104.605345
78130.0 104.609180
78140.0 104.610401
78150.0 104.610843
78160.0 104.617004
78170.0 104.616625
78180.0 104.622673
78190.0 104.623368
78200.0 104.628142
78210.0 104.639295
78220.0 104.640802
78230.0 104.648118
78240.0 104.652416
78250.0 104.655631
78260.0 104.665195
78270.0 104.668210
78280.0 104.667151
78290.0 104.674195
78300.0 104.677738
78310.0 104.682062
78320.0 104.680437
78330.0 104.681933
78340.0 104.689005
78350.0 104.698057
78360.0 104.697929
78370.0 104.696113
78380.0 104.699964
78390.0 104.694570
78400.0 104.696582
78410.0 104.701825
78420.0 104.696983
78430.0 104.710285
78440.0 104.720633
78450.0 104.722201
78460.0 104.730892
78470.0 104.740953
78480.0 104.747293
78490.0 104.752260
78500.0 104.761808
78510.0 104.764328
78520.0 104.762130
78530.0 104.765392
78540.0 104.773839
78550.0 104.777678
78560.0 104.782066
78570.0 104.784940
78580.0 104.788980
78590.0 104.788409
78600.0 104.788519
78610.0 104.795628
78620.0 104.789968
78630.0 104.801718
78640.0 104.801914
78650.0 104.810128
78660.0 104.809750
78670.0 104.816940
78680.0 104.816135
78690.0 104.822876
78700.0 104.822161
78710.0 104.830884
78720.0 104.832648
78730.0 104.829420
78740.0 104.834538
78750.0 104.835589
78760.0 104.836534
78770.0 104.830848
78780.0 104.831153
78790.0 104.836809
78800.0 104.841798
78810.0 104.847601
78820.0 104.841689
78830.0 104.851036
78840.0 104.856248
78850.0 104.862070
78860.0 104.865443
78870.0 104.865088
78880.0 104.863569
78890.0 104.867108
78900.0 104.868523
78910.0 104.869036
78920.0 104.866711
78930.0 104.859033
78940.0 104.858062
78950.0 104.859464
78960.0 104.866730
78970.0 104.876285
78980.0 104.885325
78990.0 104.894768
79000.0 104.895218
79010.0 104.893091
79020.0 104.900289
79030.0 104.908555
79040.0 104.916417
79050.0 104.921495
79060.0 104.920419
79070.0 104.921140
79080.0 104.925156
79090.0 104.924279
79100.0 104.927217
79110.0 104.935240
79120.0 104.940833
79130.0 104.950182
79140.0 104.955171
79150.0 104.970078
79160.0 104.972723
79170.0 104.976298
79180.0 104.980528
79190.0 104.981387
79200.0 104.982493
79210.0 104.979971
79220.0 104.986418
79230.0 104.994491
79240.0 104.988176
79250.0 104.991144
79260.0 104.995874
79270.0 105.000732
79280.0 105.012245
79290.0 105.009287
79300.0 105.014039
79310.0 105.021866
79320.0 105.034924
79330.0 105.049913
79340.0 105.061664
79350.0 105.064996
79360.0 105.072675
79370.0 105.072815
79380.0 105.080699
79390.0 105.085470
79400.0 105.099070
79410.0 105.109366
79420.0 105.119104
79430.0 105.119105
79440.0 105.123253
79450.0 105.128900
79460.0 105.134789
79470.0 105.140557
79480.0 105.149735
79490.0 105.153704
79500.0 105.160210
79510.0 105.161239
79520.0 105.163003
79530.0 105.172611
79540.0 105.173284
79550.0 105.181343
79560.0 105.184605
79570.0 105.191881
79580.0 105.197357
79590.0 105.203730
79600.0 105.210566
79610.0 105.217607
79620.0 105.219206
79630.0 105.221455
79640.0 105.228462
79650.0 105.226926
79660.0 105.229518
79670.0 105.227448
79680.0 105.224257
79690.0 105.224968
79700.0 105.224448
79710.0 105.217390
79720.0 105.212156
79730.0 105.211191
79740.0 105.216892
79750.0 105.215604
79760.0 105.210791
79770.0 105.209297
79780.0 105.208204
79790.0 105.211173
79800.0 105.205089
79810.0 105.202855
79820.0 105.206200
79830.0 105.206566
79840.0 105.207194
79850.0 105.207005
79860.0 105.213701
79870.0 105.220730
79880.0 105.224584
79890.0 105.223280
79900.0 105.227005
79910.0 105.226221
79920.0 105.219091
79930.0 105.225731
79940.0 105.229378
79950.0 105.229303
79960.0 105.231478
79970.0 105.224901
79980.0 105.231586
79990.0 105.228946
80000.0 105.226148
80010.0 105.227873
80020.0 105.223577
80030.0 105.223886
80040.0 105.227814
80050.0 105.232485
80060.0 105.225437
80070.0 105.225054
80080.0 105.227519
80090.0 105.232084
80100.0 105.217248
80110.0 105.209044
80120.0 105.208529
80130.0 105.206259
80140.0 105.217062
80150.0 105.218200
80160.0 105.225556
80170.0 105.235331
80180.0 105.230761
80190.0 105.234554
80200.0 105.237940
80210.0 105.244550
80220.0 105.243187
80230.0 105.240090
80240.0 105.249120
80250.0 105.248802
80260.0 105.255147
80270.0 105.259918
80280.0 105.258690
80290.0 105.267994
80300.0 105.268126
80310.0 105.274710
80320.0 105.285079
80330.0 105.287162
80340.0 105.291947
80350.0 105.294052
80360.0 105.296599
80370.0 105.300171
80380.0 105.301665
80390.0 105.305760
80400.0 105.307881
80410.0 105.311346
80420.0 105.315155
80430.0 105.312882
80440.0 105.323582
80450.0 105.320737
80460.0 105.324797
80470.0 105.324625
80480.0 105.326154
80490.0 105.323882
80500.0 105.322606
80510.0 105.329260
80520.0 105.329301
80530.0 105.334870
80540.0 105.340479
80550.0 105.346383
80560.0 105.355580
80570.0 105.358008
80580.0 105.359122
80590.0 105.356976
80600.0 105.360435
80610.0 105.369873
80620.0 105.378795
80630.0 105.381013
80640.0 105.389485
80650.0 105.391257
80660.0 105.398213
80670.0 105.403138
80680.0 105.405639
80690.0 105.411847
80700.0 105.415275
80710.0 105.418907
80720.0 105.425188
80730.0 105.433584
80740.0 105.436968
80750.0 105.436194
80760.0 105.433900
80770.0 105.436013
80780.0 105.439518
80790.0 105.443597
80800.0 105.451164
80810.0 105.456740
80820.0 105.462769
80830.0 105.460203
80840.0 105.463301
80850.0 105.470689
80860.0 105.472537
80870.0 105.477969
80880.0 105.470298
80890.0 105.467133
80900.0 105.462632
80910.0 105.461038
80920.0 105.460530
80930.0 105.463042
80940.0 105.462710
80950.0 105.459678
80960.0 105.460498
80970.0 105.457428
80980.0 105.459114
80990.0 105.462292
81000.0 105.454282
81010.0 105.452079
81020.0 105.450478
81030.0 105.451413
81040.0 105.442370
81050.0 105.447676
81060.0 105.449832
81070.0 105.451200
81080.0 105.448356
81090.0 105.446286
81100.0 105.447974
81110.0 105.450224
81120.0 105.442569
81130.0 105.440600
81140.0 105.434538
81150.0 105.434626
81160.0 105.421216
81170.0 105.410328
81180.0 105.402643
81190.0 105.393013
81200.0 105.382046
81210.0 105.368438
81220.0 105.364847
81230.0 105.359252
81240.0 105.350783
81250.0 105.340142
81260.0 105.325365
81270.0 105.320203
81280.0 105.311041
81290.0 105.299642
81300.0 105.287056
81310.0 105.278538
81320.0 105.273591
81330.0 105.257849
81340.0 105.248248
81350.0 105.236239
81360.0 105.221142
81370.0 105.216149
81380.0 105.208166
81390.0 105.191843
81400.0 105.182930
81410.0 105.179186
81420.0 105.172713
81430.0 105.162468
81440.0 105.159214
81450.0 105.158424
81460.0 105.157803
81470.0 105.148080
81480.0 105.138253
81490.0 105.132296
81500.0 105.131782
81510.0 105.123009
81520.0 105.115827
81530.0 105.109634
81540.0 105.102268
81550.0 105.093421
81560.0 105.086225
81570.0 105.085302
81580.0 105.085863
81590.0 105.080164
81600.0 105.078344
81610.0 105.076647
81620.0 105.076711
81630.0 105.069801
81640.0 105.061436
81650.0 105.058305
81660.0 105.056082
81670.0 105.048851
81680.0 105.048977
81690.0 105.047908
81700.0 105.036643
81710.0 105.029851
81720.0 105.029659
81730.0 105.018075
81740.0 105.011210
81750.0 105.003982
81760.0 105.001177
81770.0 105.000450
81780.0 104.991354
81790.0 104.997815
81800.0 105.002492
81810.0 104.999269
81820.0 105.000041
81830.0 104.999483
81840.0 105.001548
81850.0 105.004778
81860.0 105.002528
81870.0 104.995204
81880.0 104.984790
81890.0 104.984753
81900.0 104.983906
81910.0 104.984264
81920.0 104.977917
81930.0 104.972004
81940.0 104.974918
81950.0 104.971466
81960.0 104.969414
81970.0 104.968762
81980.0 104.968573
81990.0 104.965791
82000.0 104.967221
82010.0 104.959761
82020.0 104.956801
82030.0 104.955947
82040.0 104.962022
82050.0 104.965309
82060.0 104.964658
82070.0 104.965497
82080.0 104.970211
82090.0 104.967564
82100.0 104.966532
82110.0 104.975803
82120.0 104.979943
82130.0 104.977815
82140.0 104.978800
82150.0 104.971941
82160.0 104.979812
82170.0 104.985974
82180.0 104.987184
82190.0 104.991296
82200.0 104.992088
82210.0 104.999919
82220.0 105.000020
82230.0 105.003454
82240.0 105.014884
82250.0 105.022252
82260.0 105.026618
82270.0 105.025135
82280.0 105.032978
82290.0 105.042040
82300.0 105.044665
82310.0 105.050245
82320.0 105.056300
82330.0 105.057035
82340.0 105.059361
82350.0 105.064755
82360.0 105.074744
82370.0 105.078359
82380.0 105.077534
82390.0 105.077128
82400.0 105.088369
82410.0 105.091320
82420.0 105.102224
82430.0 105.107555
82440.0 105.114071
82450.0 105.119221
82460.0 105.127847
82470.0 105.135025
82480.0 105.135617
82490.0 105.138555
82500.0 105.143905
82510.0 105.137815
82520.0 105.144832
82530.0 105.144397
82540.0 105.148065
82550.0 105.154050
82560.0 105.158063
82570.0 105.150016
82580.0 105.154156
82590.0 105.156647
82600.0 105.158336
82610.0 105.160243
82620.0 105.160767
82630.0 105.164573
82640.0 105.170969
82650.0 105.166888
82660.0 105.169935
82670.0 105.173888
82680.0 105.177241
82690.0 105.180635
82700.0 105.177211
82710.0 105.185618
82720.0 105.193967
82730.0 105.201645
82740.0 105.215152
82750.0 105.219125
82760.0 105.220959
82770.0 105.227083
82780.0 105.231947
82790.0 105.233401
82800.0 105.235452
82810.0 105.245142
82820.0 105.251140
82830.0 105.261187
82840.0 105.271953
82850.0 105.278704
82860.0 105.285703
82870.0 105.293380
82880.0 105.297191
82890.0 105.303413
82900.0 105.303159
82910.0 105.311548
82920.0 105.314846
82930.0 105.328528
82940.0 105.339110
82950.0 105.348598
82960.0 105.355705
82970.0 105.357712
82980.0 105.372420
82990.0 105.385951
83000.0 105.394916
83010.0 105.407566
83020.0 105.413403
83030.0 105.422987
83040.0 105.427269
83050.0 105.432501
83060.0 105.439344
83070.0 105.455956
83080.0 105.462356
83090.0 105.469381
83100.0 105.475525
83110.0 105.486113
83120.0 105.495579
83130.0 105.504814
83140.0 105.520360
83150.0 105.529523
83160.0 105.535862
83170.0 105.546073
83180.0 105.561930
83190.0 105.566822
83200.0 105.576879
83210.0 105.587895
83220.0 105.593124
83230.0 105.599815
83240.0 105.603501
83250.0 105.613206
83260.0 105.617559
83270.0 105.625680
83280.0 105.632259
83290.0 105.630436
83300.0 105.634580
83310.0 105.644301
83320.0 105.657993
83330.0 105.657762
83340.0 105.661379
83350.0 105.669823
83360.0 105.680446
83370.0 105.693527
83380.0 105.707003
83390.0 105.716527
83400.0 105.720368
83410.0 105.730481
83420.0 105.742604
83430.0 105.750934
83440.0 105.759309
83450.0 105.776578
83460.0 105.792200
83470.0 105.808984
83480.0 105.819947
83490.0 105.832125
83500.0 105.839383
83510.0 105.850363
83520.0 105.860853
83530.0 105.868322
83540.0 105.877309
83550.0 105.882324
83560.0 105.886296
83570.0 105.894696
83580.0 105.902391
83590.0 105.909442
83600.0 105.921679
83610.0 105.927056
83620.0 105.937087
83630.0 105.943202
83640.0 105.953153
83650.0 105.957023
83660.0 105.962626
83670.0 105.967101
83680.0 105.972505
83690.0 105.977943
83700.0 105.993635
83710.0 105.996785
83720.0 106.010721
83730.0 106.018548
83740.0 106.025757
83750.0 106.040953
83760.0 106.046285
83770.0 106.059480
83780.0 106.071558
83790.0 106.078536
83800.0 106.089074
83810.0 106.101817
83820.0 106.115022
83830.0 106.126513
83840.0 106.140595
83850.0 106.149758
83860.0 106.152938
83870.0 106.164144
83880.0 106.172007
83890.0 106.186609
83900.0 106.187337
83910.0 106.194770
83920.0 106.210516
83930.0 106.217573
83940.0 106.229018
83950.0 106.241381
83960.0 106.258183
83970.0 106.274642
83980.0 106.285774
83990.0 106.298432
84000.0 106.307059
84010.0 106.314382
84020.0 106.323523
84030.0 106.331719
84040.0 106.340235
84050.0 106.348949
84060.0 106.364278
84070.0 106.376616
84080.0 106.386472
84090.0 106.393069
84100.0 106.404966
84110.0 106.417060
84120.0 106.432500
84130.0 106.446573
84140.0 106.460701
84150.0 106.473426
84160.0 106.482294
84170.0 106.488972
84180.0 106.503190
84190.0 106.514133
84200.0 106.523705
84210.0 106.533788
84220.0 106.545955
84230.0 106.555052
84240.0 106.563795
84250.0 106.573062
84260.0 106.578383
84270.0 106.594947
84280.0 106.599668
84290.0 106.617128
84300.0 106.624403
84310.0 106.639636
84320.0 106.647825
84330.0 106.664134
84340.0 106.681653
84350.0 106.693948
84360.0 106.715623
84370.0 106.733822
84380.0 106.745397
84390.0 106.756266
84400.0 106.775115
84410.0 106.785912
84420.0 106.799518
84430.0 106.806649
84440.0 106.817877
84450.0 106.829011
84460.0 106.842583
84470.0 106.847298
84480.0 106.855112
84490.0 106.863296
84500.0 106.876937
84510.0 106.885940
84520.0 106.892816
84530.0 106.908391
84540.0 106.913458
84550.0 106.914487
84560.0 106.925340
84570.0 106.944279
84580.0 106.953544
84590.0 106.959927
84600.0 106.967536
84610.0 106.979974
84620.0 106.992222
84630.0 107.004544
84640.0 107.011790
84650.0 107.016474
84660.0 107.027027
84670.0 107.043132
84680.0 107.051290
84690.0 107.055615
84700.0 107.061786
84710.0 107.067107
84720.0 107.079006
84730.0 107.085686
84740.0 107.091055
84750.0 107.091908
84760.0 107.100275
84770.0 107.117868
84780.0 107.124034
84790.0 107.127455
84800.0 107.139990
84810.0 107.147376
84820.0 107.155134
84830.0 107.165390
84840.0 107.179077
84850.0 107.171087
84860.0 107.182591
84870.0 107.192477
84880.0 107.203641
84890.0 107.212381
84900.0 107.221858
84910.0 107.227864
84920.0 107.238722
84930.0 107.244520
84940.0 107.252103
84950.0 107.259769
84960.0 107.266803
84970.0 107.271746
84980.0 107.276565
84990.0 107.288415
85000.0 107.294694
85010.0 107.308698
85020.0 107.322599
85030.0 107.333990
85040.0 107.346601
85050.0 107.362812
85060.0 107.375901
85070.0 107.390253
85080.0 107.396737
85090.0 107.411206
85100.0 107.426900
85110.0 107.432969
85120.0 107.439695
85130.0 107.452013
85140.0 107.467404
85150.0 107.477767
85160.0 107.484079
85170.0 107.501721
85180.0 107.519789
85190.0 107.528661
85200.0 107.539135
85210.0 107.547020
85220.0 107.561852
85230.0 107.575503
85240.0 107.584156
85250.0 107.596832
85260.0 107.602109
85270.0 107.617836
85280.0 107.628919
85290.0 107.639675
85300.0 107.648634
85310.0 107.662605
85320.0 107.674461
85330.0 107.690065
85340.0 107.701021
85350.0 107.700865
85360.0 107.706627
85370.0 107.718980
85380.0 107.729615
85390.0 107.742790
85400.0 107.749251
85410.0 107.764432
85420.0 107.777812
85430.0 107.789291
85440.0 107.800296
85450.0 107.807476
85460.0 107.811471
85470.0 107.821968
85480.0 107.832228
85490.0 107.843255
85500.0 107.848719
85510.0 107.852212
85520.0 107.854634
85530.0 107.864151
85540.0 107.863135
85550.0 107.870636
85560.0 107.885990
85570.0 107.897678
85580.0 107.907351
85590.0 107.915140
85600.0 107.929876
85610.0 107.938877
85620.0 107.949699
85630.0 107.962887
85640.0 107.973505
85650.0 107.978274
85660.0 107.994935
85670.0 107.996831
85680.0 108.015854
85690.0 108.029139
85700.0 108.032176
85710.0 108.044858
85720.0 108.052827
85730.0 108.066015
85740.0 108.075298
85750.0 108.091189
85760.0 108.102383
85770.0 108.110126
85780.0 108.119655
85790.0 108.135811
85800.0 108.146784
85810.0 108.153676
85820.0 108.166711
85830.0 108.175944
85840.0 108.194010
85850.0 108.207842
85860.0 108.214642
85870.0 108.227176
85880.0 108.245844
85890.0 108.249510
85900.0 108.261275
85910.0 108.270410
85920.0 108.280159
85930.0 108.290308
85940.0 108.299857
85950.0 108.310234
85960.0 108.329885
85970.0 108.347252
85980.0 108.367357
85990.0 108.382980
86000.0 108.401465
86010.0 108.420062
86020.0 108.436565
86030.0 108.453863
86040.0 108.471652
86050.0 108.482281
86060.0 108.500707
86070.0 108.515949
86080.0 108.534708
86090.0 108.549758
86100.0 108.560846
86110.0 108.580060
86120.0 108.595048
86130.0 108.613213
86140.0 108.636633
86150.0 108.658889
86160.0 108.678121
86170.0 108.705077
86180.0 108.731708
86190.0 108.747987
86200.0 108.770085
86210.0 108.793863
86220.0 108.817934
86230.0 108.840589
86240.0 108.855653
86250.0 108.880767
86260.0 108.900024
86270.0 108.919848
86280.0 108.936114
86290.0 108.962552
86300.0 108.987766
86310.0 109.007680
86320.0 109.027460
86330.0 109.046130
86340.0 109.067115
86350.0 109.094467
86360.0 109.114058
86370.0 109.137491
86380.0 109.156129
86390.0 109.177273
86400.0 109.202405
86400.0 109.202405
